=====================
  Detection Session  
=====================
Name:		Mohamed Nour El-Din
Source:		/Session_2014_01_15_54172/[T][2014-01-15 15-02-52] Mohamed Nour El-Din.csv
Date:		2014-03-01 16:48:36
Trials:		10
PreTime:	4
RecTime:	4
PostTime:	4
Classifier:	KNN_LDA
AvgDetectTime:	0.133906531334
Triggers:	5086, 6736, 8385, 10035, 11685, 13335, 14984, 16634, 18283, 19933
Directions:	2, 2, 1, 1, 2, 1, 1, 1, 1, 1
ClassesTypes:	2, 1, 1, 2, 1, 2, 1, 2, 1, 2
ClassesNames:	RIGHT, LEFT

RawData:
Count,	F3,	FC5,	AF3,	F7,	T7,	P7,	O1,	O2,	P8,	T8,	F8,	AF4,	FC6,	F4,	Q_F3,	Q_FC5,	Q_AF3,	Q_F7,	Q_T7,	Q_P7,	Q_O1,	Q_O2,	Q_P8,	Q_T8,	Q_F8,	Q_AF4,	Q_FC6,	Q_F4,	GyroX,	GyroY
81,	8464,	8416,	8953,	8304,	7485,	8324,	7795,	8662,	8195,	8175,	8289,	8257,	8814,	8145,	0.00,	0.00,	0.00,	0.00,	0.00,	0.00,	0.00,	0.00,	0.00,	0.00,	0.25,	0.03,	13.11,	14.93,	1638,	1655
82,	8465,	8410,	8965,	8301,	7477,	8318,	7788,	8657,	8193,	8185,	8310,	8265,	8817,	8152,	0.00,	0.00,	0.00,	0.00,	0.00,	0.00,	0.00,	0.00,	0.00,	0.00,	0.25,	0.03,	13.11,	14.93,	1637,	1654
83,	8469,	8393,	8964,	8291,	7479,	8323,	7793,	8664,	8194,	8216,	8302,	8259,	8809,	8152,	0.00,	0.00,	0.00,	0.00,	0.00,	0.00,	0.00,	0.00,	0.00,	0.00,	0.25,	0.03,	13.11,	14.93,	1638,	1654
84,	8469,	8392,	8957,	8282,	7475,	8322,	7801,	8676,	8210,	8228,	8297,	8257,	8796,	8156,	0.00,	0.00,	0.00,	0.00,	0.00,	0.00,	0.00,	0.00,	0.00,	0.00,	0.25,	0.03,	13.11,	14.93,	1638,	1654
85,	8479,	8394,	8963,	8286,	7467,	8308,	7805,	8687,	8223,	8203,	8301,	8262,	8782,	8168,	0.00,	0.00,	0.00,	0.00,	0.00,	0.00,	0.00,	0.00,	0.00,	0.00,	0.25,	0.03,	13.11,	14.93,	1637,	1657
86,	8497,	8387,	8971,	8282,	7473,	8304,	7807,	8680,	8212,	8177,	8292,	8263,	8758,	8167,	0.00,	0.00,	0.00,	0.00,	0.00,	0.00,	0.00,	0.00,	0.00,	0.00,	0.25,	0.03,	13.13,	14.93,	1639,	1656
87,	8495,	8398,	8966,	8275,	7488,	8310,	7802,	8669,	8199,	8191,	8293,	8263,	8755,	8158,	0.00,	0.00,	0.00,	0.00,	0.00,	0.00,	0.00,	0.00,	0.00,	0.00,	0.25,	0.03,	13.13,	14.93,	1637,	1657
88,	8481,	8409,	8957,	8280,	7497,	8324,	7805,	8679,	8210,	8223,	8308,	8261,	8759,	8161,	0.00,	0.00,	0.00,	0.00,	0.00,	0.00,	0.00,	0.00,	0.00,	0.00,	0.25,	0.03,	13.13,	14.93,	1638,	1657
89,	8474,	8396,	8952,	8276,	7490,	8336,	7812,	8674,	8210,	8223,	8288,	8250,	8734,	8161,	0.00,	0.00,	0.00,	0.00,	0.00,	0.00,	0.00,	0.00,	0.00,	0.00,	0.25,	0.03,	13.13,	14.93,	1637,	1657
90,	8472,	8390,	8938,	8267,	7500,	8331,	7809,	8656,	8206,	8199,	8264,	8239,	8702,	8149,	0.00,	0.00,	0.00,	0.00,	0.00,	0.00,	0.00,	0.00,	0.00,	0.00,	0.25,	0.03,	13.13,	14.93,	1638,	1658
91,	8468,	8395,	8938,	8261,	7494,	8308,	7794,	8659,	8204,	8180,	8267,	8238,	8686,	8143,	0.00,	0.00,	0.00,	0.00,	0.00,	0.00,	0.00,	0.00,	0.00,	0.00,	0.25,	0.03,	13.13,	14.93,	1639,	1657
92,	8463,	8382,	8947,	8262,	7473,	8302,	7790,	8670,	8197,	8182,	8259,	8244,	8677,	8143,	0.00,	0.00,	0.00,	0.00,	0.00,	0.00,	0.00,	0.00,	0.00,	0.00,	0.27,	0.00,	13.11,	14.95,	1639,	1658
93,	8467,	8383,	8950,	8274,	7502,	8326,	7813,	8683,	8216,	8209,	8263,	8253,	8678,	8149,	0.00,	0.00,	0.00,	0.00,	0.00,	0.00,	0.00,	0.00,	0.00,	0.00,	0.27,	0.00,	13.11,	14.95,	1639,	1655
94,	8474,	8395,	8960,	8278,	7531,	8336,	7822,	8690,	8234,	8223,	8289,	8267,	8673,	8153,	0.00,	0.00,	0.00,	0.00,	0.00,	0.00,	0.00,	0.00,	0.00,	0.00,	0.27,	0.00,	13.11,	14.95,	1639,	1656
95,	8485,	8384,	8970,	8281,	7511,	8329,	7812,	8685,	8228,	8227,	8301,	8271,	8662,	8157,	0.00,	0.00,	0.00,	0.00,	0.00,	0.00,	0.00,	0.00,	0.00,	0.00,	0.27,	0.00,	13.11,	14.95,	1639,	1656
96,	8502,	8392,	8978,	8292,	7490,	8327,	7812,	8685,	8232,	8238,	8306,	8279,	8673,	8173,	0.00,	0.00,	0.00,	0.00,	0.00,	0.00,	0.00,	0.00,	0.00,	0.00,	0.27,	0.00,	13.11,	14.95,	1638,	1659
97,	8498,	8409,	8976,	8282,	7508,	8314,	7811,	8682,	8234,	8222,	8296,	8277,	8662,	8172,	0.00,	0.00,	0.00,	0.00,	0.00,	0.00,	0.00,	0.00,	0.00,	0.00,	0.27,	0.00,	13.11,	14.95,	1638,	1660
98,	8470,	8386,	8952,	8262,	7506,	8299,	7798,	8665,	8206,	8201,	8268,	8248,	8611,	8145,	0.00,	0.00,	0.00,	0.00,	0.00,	0.00,	0.00,	0.00,	0.00,	0.00,	0.27,	0.00,	13.11,	14.95,	1639,	1662
99,	8462,	8363,	8939,	8263,	7479,	8301,	7788,	8655,	8188,	8201,	8262,	8233,	8589,	8139,	0.00,	0.00,	0.00,	0.00,	0.00,	0.00,	0.00,	0.00,	0.00,	0.00,	0.27,	0.00,	13.11,	14.95,	1638,	1662
100,	8471,	8376,	8943,	8267,	7490,	8310,	7793,	8668,	8202,	8195,	8269,	8238,	8589,	8144,	0.00,	0.00,	0.00,	0.00,	0.00,	0.00,	0.00,	0.00,	0.00,	0.00,	0.27,	0.00,	13.11,	14.95,	1638,	1662
101,	8470,	8384,	8942,	8267,	7504,	8325,	7809,	8682,	8217,	8196,	8270,	8241,	8572,	8143,	0.00,	0.00,	0.00,	0.00,	0.00,	0.00,	0.00,	0.00,	0.00,	0.00,	0.27,	0.00,	13.11,	14.95,	1637,	1662
102,	8482,	8378,	8955,	8273,	7482,	8329,	7817,	8685,	8221,	8206,	8278,	8257,	8570,	8161,	0.00,	0.00,	0.00,	0.00,	0.00,	0.00,	0.00,	0.00,	0.00,	0.00,	0.25,	0.00,	13.11,	14.95,	1637,	1663
103,	8491,	8381,	8976,	8280,	7481,	8319,	7809,	8680,	8220,	8203,	8283,	8273,	8567,	8171,	0.00,	0.00,	0.00,	0.00,	0.00,	0.00,	0.00,	0.00,	0.00,	0.00,	0.25,	0.01,	13.11,	14.95,	1637,	1662
104,	8476,	8372,	8960,	8274,	7509,	8307,	7794,	8662,	8203,	8195,	8265,	8259,	8538,	8152,	0.00,	0.00,	0.00,	0.00,	0.00,	0.00,	0.00,	0.00,	0.00,	0.00,	0.25,	0.01,	13.13,	14.95,	1636,	1664
105,	8462,	8353,	8932,	8250,	7515,	8301,	7788,	8643,	8184,	8188,	8243,	8239,	8514,	8135,	0.00,	0.00,	0.00,	0.00,	0.00,	0.00,	0.00,	0.00,	0.00,	0.00,	0.25,	0.01,	13.13,	14.93,	1636,	1662
106,	8459,	8356,	8934,	8246,	7492,	8309,	7796,	8644,	8192,	8187,	8249,	8246,	8510,	8139,	0.00,	0.00,	0.00,	0.00,	0.00,	0.00,	0.00,	0.00,	0.00,	0.00,	0.24,	0.01,	13.13,	14.93,	1634,	1662
107,	8463,	8362,	8948,	8255,	7464,	8309,	7788,	8649,	8196,	8188,	8257,	8250,	8500,	8139,	0.00,	0.00,	0.00,	0.00,	0.00,	0.00,	0.00,	0.00,	0.00,	0.00,	0.24,	0.00,	13.13,	14.93,	1634,	1662
108,	8475,	8372,	8950,	8255,	7465,	8297,	7775,	8651,	8194,	8173,	8255,	8253,	8491,	8139,	0.00,	0.00,	0.00,	0.00,	0.00,	0.00,	0.00,	0.00,	0.00,	0.00,	0.24,	0.00,	13.14,	14.93,	1631,	1660
109,	8477,	8387,	8951,	8270,	7497,	8303,	7790,	8661,	8212,	8170,	8259,	8264,	8490,	8145,	0.00,	0.00,	0.00,	0.00,	0.00,	0.00,	0.00,	0.00,	0.00,	0.00,	0.24,	0.00,	13.14,	14.96,	1630,	1662
110,	8464,	8375,	8952,	8278,	7507,	8308,	7796,	8660,	8218,	8195,	8262,	8255,	8473,	8143,	0.00,	0.00,	0.00,	0.00,	0.00,	0.00,	0.00,	0.00,	0.00,	0.00,	0.24,	0.00,	13.14,	14.96,	1627,	1662
111,	8450,	8355,	8936,	8256,	7487,	8288,	7776,	8645,	8192,	8201,	8247,	8229,	8447,	8131,	0.00,	0.00,	0.00,	0.00,	0.00,	0.00,	0.00,	0.00,	0.00,	0.00,	0.24,	0.00,	13.14,	14.96,	1626,	1664
112,	8445,	8356,	8919,	8244,	7469,	8282,	7776,	8637,	8175,	8188,	8228,	8224,	8431,	8117,	0.00,	0.00,	0.00,	0.00,	0.00,	0.00,	0.00,	0.00,	0.00,	0.00,	0.24,	0.00,	13.10,	14.96,	1624,	1664
113,	8456,	8375,	8934,	8268,	7481,	8310,	7805,	8648,	8201,	8200,	8248,	8244,	8432,	8126,	0.00,	0.00,	0.00,	0.00,	0.00,	0.00,	0.00,	0.00,	0.00,	0.00,	0.24,	0.00,	13.10,	14.95,	1622,	1667
114,	8472,	8376,	8954,	8275,	7500,	8319,	7812,	8656,	8212,	8193,	8261,	8251,	8427,	8143,	0.00,	0.00,	0.00,	0.00,	0.00,	0.00,	0.00,	0.00,	0.00,	0.00,	0.24,	0.00,	13.10,	14.95,	1621,	1666
115,	8461,	8363,	8936,	8242,	7487,	8295,	7789,	8639,	8175,	8143,	8215,	8226,	8385,	8123,	0.00,	0.00,	0.00,	0.00,	0.00,	0.00,	0.00,	0.00,	0.00,	0.00,	0.24,	0.01,	13.10,	14.95,	1619,	1668
116,	8449,	8374,	8921,	8232,	7481,	8299,	7788,	8634,	8176,	8149,	8205,	8212,	8365,	8107,	0.00,	0.00,	0.00,	0.00,	0.00,	0.00,	0.00,	0.00,	0.00,	0.00,	0.24,	0.01,	13.10,	14.95,	1619,	1668
117,	8464,	8386,	8947,	8261,	7506,	8325,	7807,	8661,	8225,	8213,	8267,	8238,	8406,	8133,	0.00,	0.00,	0.00,	0.00,	0.00,	0.00,	0.00,	0.00,	0.00,	0.00,	0.24,	0.01,	13.10,	14.98,	1617,	1670
118,	8483,	8371,	8962,	8270,	7515,	8332,	7812,	8691,	8245,	8231,	8291,	8261,	8433,	8159,	0.00,	0.00,	0.00,	0.00,	0.00,	0.00,	0.00,	0.00,	0.00,	0.00,	0.24,	0.01,	13.10,	14.98,	1618,	1672
119,	8482,	8363,	8948,	8243,	7495,	8319,	7807,	8688,	8232,	8209,	8276,	8260,	8415,	8149,	0.00,	0.00,	0.00,	0.00,	0.00,	0.00,	0.00,	0.00,	0.00,	0.00,	0.24,	0.04,	13.10,	14.98,	1616,	1670
120,	8465,	8366,	8939,	8226,	7480,	8303,	7800,	8659,	8222,	8197,	8282,	8247,	8394,	8128,	0.00,	0.00,	0.00,	0.00,	0.00,	0.00,	0.00,	0.00,	0.00,	0.00,	0.24,	0.04,	13.10,	14.98,	1617,	1671
121,	8455,	8364,	8936,	8236,	7487,	8307,	7798,	8651,	8217,	8195,	8285,	8237,	8385,	8128,	0.00,	0.00,	0.00,	0.00,	0.00,	0.00,	0.00,	0.00,	0.00,	0.00,	0.24,	0.04,	13.10,	14.96,	1616,	1668
122,	8458,	8366,	8927,	8231,	7500,	8324,	7801,	8657,	8217,	8201,	8269,	8238,	8379,	8140,	0.00,	0.00,	0.00,	0.00,	0.00,	0.00,	0.00,	0.00,	0.00,	0.00,	0.25,	0.04,	13.10,	14.96,	1615,	1669
123,	8465,	8364,	8918,	8212,	7500,	8324,	7803,	8655,	8228,	8218,	8266,	8241,	8381,	8143,	0.00,	0.00,	0.00,	0.00,	0.00,	0.00,	0.00,	0.00,	0.00,	0.00,	0.25,	0.04,	13.10,	14.96,	1615,	1671
124,	8467,	8355,	8918,	8215,	7500,	8315,	7808,	8662,	8236,	8225,	8277,	8243,	8383,	8141,	0.00,	0.00,	0.00,	0.00,	0.00,	0.00,	0.00,	0.00,	0.00,	0.00,	0.25,	0.04,	13.10,	14.96,	1615,	1673
125,	8462,	8356,	8924,	8232,	7502,	8309,	7805,	8664,	8224,	8205,	8276,	8242,	8368,	8141,	0.00,	0.00,	0.00,	0.00,	0.00,	0.00,	0.00,	0.00,	0.00,	0.00,	0.25,	0.04,	13.10,	14.95,	1615,	1670
126,	8465,	8365,	8929,	8234,	7488,	8306,	7797,	8654,	8221,	8193,	8262,	8240,	8353,	8147,	0.00,	0.00,	0.00,	0.00,	0.00,	0.00,	0.00,	0.00,	0.00,	0.00,	0.25,	0.04,	13.10,	14.95,	1615,	1666
127,	8477,	8381,	8937,	8233,	7476,	8310,	7801,	8662,	8235,	8207,	8246,	8246,	8356,	8156,	0.00,	0.00,	0.00,	0.00,	0.00,	0.00,	0.00,	0.00,	0.00,	0.00,	0.25,	0.01,	13.10,	14.95,	1617,	1660
0,	8471,	8356,	8918,	8236,	7504,	8325,	7821,	8668,	8234,	8175,	8245,	8235,	8338,	8140,	0.01,	0.00,	0.00,	0.00,	0.00,	0.00,	0.00,	0.00,	0.00,	0.00,	0.25,	0.01,	13.10,	14.95,	1619,	1659
1,	8463,	8349,	8913,	8226,	7488,	8325,	7830,	8669,	8241,	8179,	8254,	8224,	8331,	8142,	0.01,	0.09,	0.00,	0.00,	0.00,	0.00,	0.00,	0.00,	0.00,	0.00,	0.25,	0.01,	13.10,	14.95,	1619,	1660
2,	8467,	8381,	8929,	8229,	7492,	8320,	7825,	8669,	8243,	8200,	8266,	8234,	8343,	8149,	0.01,	0.09,	14.71,	0.00,	0.00,	0.00,	0.00,	0.00,	0.00,	0.00,	0.25,	0.01,	13.10,	14.95,	1621,	1663
3,	8471,	8387,	8931,	8239,	7505,	8325,	7820,	8671,	8251,	8197,	8260,	8242,	8345,	8148,	0.01,	0.09,	14.71,	2.01,	0.00,	0.00,	0.00,	0.00,	0.00,	0.00,	0.25,	0.01,	13.10,	14.95,	1624,	1660
4,	8463,	8371,	8924,	8235,	7486,	8332,	7824,	8676,	8263,	8198,	8248,	8234,	8330,	8145,	0.01,	0.09,	14.71,	2.01,	1.19,	0.00,	0.00,	0.00,	0.00,	0.00,	0.25,	0.01,	13.10,	14.95,	1625,	1658
5,	8465,	8382,	8935,	8238,	7467,	8324,	7815,	8680,	8259,	8206,	8258,	8234,	8320,	8156,	0.01,	0.09,	14.71,	2.01,	1.19,	2.41,	0.00,	0.00,	0.00,	0.00,	0.25,	0.01,	13.10,	14.95,	1628,	1654
6,	8481,	8385,	8945,	8247,	7471,	8315,	7797,	8680,	8254,	8193,	8268,	8239,	8319,	8161,	0.01,	0.09,	14.71,	2.01,	1.19,	2.41,	4.16,	0.00,	0.00,	0.00,	0.25,	0.01,	13.10,	14.95,	1630,	1653
7,	8482,	8375,	8938,	8247,	7486,	8311,	7792,	8677,	8258,	8192,	8263,	8239,	8320,	8150,	0.01,	0.09,	14.71,	2.01,	1.19,	2.41,	4.16,	13.27,	0.00,	0.00,	0.25,	0.01,	13.10,	14.95,	1632,	1654
8,	8471,	8379,	8931,	8240,	7489,	8296,	7783,	8652,	8242,	8201,	8261,	8238,	8316,	8140,	0.01,	0.09,	14.71,	2.01,	1.19,	2.41,	4.16,	13.27,	8.28,	0.00,	0.25,	0.01,	13.10,	14.95,	1633,	1657
9,	8481,	8382,	8937,	8241,	7478,	8299,	7780,	8643,	8229,	8194,	8270,	8248,	8315,	8150,	0.01,	0.09,	14.71,	2.01,	1.19,	2.41,	4.16,	13.27,	8.28,	12.50,	0.25,	0.01,	13.10,	14.95,	1636,	1663
10,	8497,	8381,	8945,	8260,	7485,	8323,	7799,	8673,	8253,	8198,	8276,	8260,	8305,	8169,	0.01,	0.09,	14.71,	2.01,	1.19,	2.41,	4.16,	13.27,	8.28,	12.50,	0.28,	0.01,	13.10,	14.95,	1636,	1664
11,	8486,	8390,	8926,	8258,	7491,	8319,	7799,	8673,	8261,	8211,	8257,	8245,	8280,	8161,	0.01,	0.09,	14.71,	2.01,	1.19,	2.41,	4.16,	13.27,	8.28,	12.50,	0.28,	0.04,	13.10,	14.95,	1639,	1665
12,	8473,	8383,	8906,	8237,	7468,	8297,	7783,	8643,	8240,	8207,	8233,	8224,	8272,	8145,	0.01,	0.09,	14.71,	2.01,	1.19,	2.41,	4.16,	13.27,	8.28,	12.50,	0.28,	0.04,	13.50,	14.95,	1639,	1664
13,	8490,	8372,	8924,	8239,	7464,	8304,	7792,	8647,	8246,	8206,	8249,	8237,	8282,	8147,	0.01,	0.09,	14.71,	2.01,	1.19,	2.41,	4.16,	13.27,	8.28,	12.50,	0.28,	0.04,	13.50,	14.93,	1640,	1665
14,	8505,	8388,	8948,	8260,	7486,	8322,	7805,	8668,	8266,	8213,	8268,	8252,	8282,	8155,	0.01,	0.09,	14.71,	2.01,	1.19,	2.41,	4.16,	13.27,	8.28,	12.50,	0.25,	0.04,	13.50,	14.93,	1640,	1666
15,	8499,	8409,	8946,	8269,	7488,	8329,	7805,	8672,	8274,	8214,	8251,	8246,	8271,	8156,	0.01,	0.09,	14.71,	2.01,	1.19,	2.41,	4.16,	13.27,	8.28,	12.50,	0.25,	0.01,	13.50,	14.93,	1640,	1669
16,	8482,	8389,	8929,	8257,	7469,	8317,	7801,	8660,	8258,	8210,	8237,	8233,	8250,	8144,	0.01,	0.09,	14.71,	2.01,	1.19,	2.41,	4.16,	13.27,	8.28,	12.50,	0.25,	0.01,	13.50,	14.93,	1642,	1669
17,	8466,	8348,	8910,	8233,	7460,	8294,	7781,	8629,	8221,	8192,	8226,	8217,	8223,	8120,	0.01,	0.09,	14.71,	2.01,	1.19,	2.41,	4.16,	13.27,	8.28,	12.50,	0.25,	0.01,	13.50,	14.93,	1642,	1669
18,	8467,	8349,	8911,	8229,	7464,	8298,	7771,	8621,	8217,	8185,	8225,	8211,	8223,	8121,	0.01,	0.09,	14.71,	2.01,	1.19,	2.41,	4.16,	13.27,	8.28,	12.50,	0.25,	0.01,	13.50,	14.93,	1643,	1668
19,	8483,	8377,	8933,	8254,	7467,	8321,	7790,	8649,	8252,	8198,	8242,	8223,	8240,	8145,	0.01,	0.09,	14.71,	2.01,	1.19,	2.41,	4.16,	13.27,	8.28,	12.50,	0.25,	0.01,	13.50,	14.93,	1643,	1666
20,	8488,	8386,	8941,	8270,	7466,	8322,	7799,	8657,	8256,	8198,	8245,	8233,	8234,	8148,	0.01,	0.09,	14.71,	2.01,	1.19,	2.41,	4.16,	13.27,	8.28,	12.50,	0.25,	0.01,	13.50,	14.93,	1644,	1667
21,	8485,	8384,	8939,	8255,	7469,	8316,	7792,	8641,	8233,	8188,	8237,	8229,	8225,	8146,	0.01,	0.09,	14.71,	2.01,	1.19,	2.41,	4.16,	13.27,	8.28,	12.50,	0.25,	0.01,	13.50,	14.93,	1644,	1668
22,	8484,	8390,	8942,	8256,	7483,	8316,	7791,	8635,	8231,	8195,	8246,	8229,	8231,	8150,	0.01,	0.09,	14.71,	2.01,	1.19,	2.41,	4.16,	13.27,	8.28,	12.50,	0.25,	0.01,	13.50,	14.93,	1643,	1671
23,	8474,	8387,	8929,	8265,	7474,	8298,	7777,	8631,	8229,	8195,	8248,	8226,	8229,	8145,	0.01,	0.09,	14.71,	2.01,	1.19,	2.41,	4.16,	13.27,	8.28,	12.50,	0.25,	0.01,	13.50,	14.93,	1642,	1671
24,	8466,	8367,	8916,	8245,	7449,	8287,	7760,	8611,	8207,	8150,	8224,	8214,	8211,	8131,	0.01,	0.09,	14.71,	2.01,	1.19,	2.41,	4.16,	13.27,	8.28,	12.50,	0.25,	0.01,	13.50,	14.93,	1642,	1669
25,	8481,	8374,	8932,	8246,	7460,	8313,	7778,	8608,	8203,	8131,	8227,	8222,	8211,	8136,	0.01,	0.09,	14.71,	2.01,	1.19,	2.41,	4.16,	13.27,	8.28,	12.50,	0.25,	0.01,	13.50,	14.93,	1641,	1667
26,	8498,	8388,	8951,	8278,	7473,	8326,	7802,	8627,	8225,	8169,	8246,	8235,	8227,	8151,	0.01,	0.09,	14.71,	2.01,	1.19,	2.41,	4.16,	13.27,	8.28,	12.50,	0.25,	0.01,	13.50,	14.93,	1641,	1665
27,	8485,	8365,	8934,	8261,	7459,	8303,	7791,	8624,	8220,	8176,	8227,	8217,	8218,	8142,	0.01,	0.09,	14.71,	2.01,	1.19,	2.41,	4.16,	13.27,	8.28,	12.50,	0.25,	0.01,	13.50,	14.93,	1640,	1666
28,	8469,	8357,	8920,	8231,	7463,	8302,	7783,	8607,	8204,	8157,	8216,	8207,	8195,	8126,	0.01,	0.09,	14.71,	2.01,	1.19,	2.41,	4.16,	13.27,	8.28,	12.50,	0.25,	0.01,	13.50,	14.93,	1640,	1666
29,	8486,	8387,	8939,	8260,	7478,	8328,	7801,	8616,	8223,	8168,	8244,	8231,	8199,	8138,	0.01,	0.09,	14.71,	2.01,	1.19,	2.41,	4.16,	13.27,	8.28,	12.50,	0.25,	0.01,	13.50,	14.93,	1638,	1666
30,	8503,	8399,	8953,	8279,	7479,	8325,	7812,	8631,	8236,	8180,	8262,	8247,	8225,	8157,	0.01,	0.09,	14.71,	2.01,	1.19,	2.41,	4.16,	13.27,	8.28,	12.50,	0.25,	0.01,	13.50,	14.93,	1638,	1665
31,	8502,	8387,	8942,	8267,	7482,	8308,	7809,	8632,	8226,	8174,	8255,	8236,	8232,	8156,	0.01,	0.09,	14.71,	2.01,	1.19,	2.41,	4.16,	13.27,	8.28,	12.50,	0.25,	0.01,	13.50,	14.93,	1637,	1661
32,	8507,	8386,	8940,	8273,	7492,	8312,	7804,	8636,	8225,	8178,	8251,	8240,	8218,	8159,	0.01,	0.09,	14.71,	2.01,	1.19,	2.41,	4.16,	13.27,	8.28,	12.50,	0.25,	0.01,	13.50,	14.93,	1636,	1661
33,	8512,	8400,	8953,	8287,	7499,	8320,	7800,	8646,	8238,	8198,	8264,	8258,	8222,	8170,	0.01,	0.09,	14.71,	2.01,	1.19,	2.41,	4.16,	13.27,	8.28,	12.50,	0.25,	0.01,	13.50,	14.93,	1637,	1659
34,	8502,	8407,	8956,	8291,	7482,	8321,	7808,	8654,	8251,	8212,	8280,	8258,	8239,	8162,	0.01,	0.09,	14.71,	2.01,	1.19,	2.41,	4.16,	13.27,	8.28,	12.50,	0.25,	0.01,	13.50,	14.93,	1636,	1660
35,	8487,	8381,	8943,	8282,	7467,	8323,	7813,	8648,	8245,	8200,	8263,	8236,	8232,	8147,	0.01,	0.09,	14.71,	2.01,	1.19,	2.41,	4.16,	13.27,	8.28,	12.50,	0.25,	0.01,	13.50,	14.93,	1637,	1663
36,	8474,	8359,	8919,	8263,	7482,	8329,	7812,	8631,	8220,	8164,	8221,	8214,	8200,	8140,	0.01,	0.09,	14.71,	2.01,	1.19,	2.41,	4.16,	13.27,	8.28,	12.50,	0.25,	0.01,	13.50,	14.93,	1637,	1663
37,	8478,	8364,	8913,	8250,	7468,	8328,	7808,	8620,	8200,	8146,	8207,	8204,	8184,	8134,	0.01,	0.09,	14.71,	2.01,	1.19,	2.41,	4.16,	13.27,	8.28,	12.50,	0.25,	0.01,	13.50,	14.93,	1638,	1663
38,	8491,	8372,	8933,	8255,	7451,	8322,	7803,	8620,	8209,	8158,	8239,	8224,	8202,	8144,	0.01,	0.09,	14.71,	2.01,	1.19,	2.41,	4.16,	13.27,	8.28,	12.50,	0.25,	0.01,	13.50,	14.93,	1638,	1661
39,	8492,	8372,	8943,	8262,	7475,	8311,	7797,	8628,	8222,	8175,	8263,	8251,	8216,	8160,	0.01,	0.09,	14.71,	2.01,	1.19,	2.41,	4.16,	13.27,	8.28,	12.50,	0.25,	0.01,	13.50,	14.93,	1639,	1661
40,	8502,	8383,	8951,	8274,	7492,	8311,	7807,	8648,	8239,	8201,	8264,	8259,	8223,	8170,	0.01,	0.09,	14.71,	2.01,	1.19,	2.41,	4.16,	13.27,	8.28,	12.50,	0.25,	0.01,	13.50,	14.93,	1639,	1661
41,	8529,	8399,	8970,	8290,	7496,	8319,	7825,	8674,	8260,	8208,	8269,	8270,	8233,	8185,	0.01,	0.09,	14.71,	2.01,	1.19,	2.41,	4.16,	13.27,	8.28,	12.50,	0.25,	0.01,	13.50,	14.93,	1640,	1664
42,	8526,	8394,	8973,	8280,	7502,	8310,	7803,	8648,	8235,	8181,	8266,	8271,	8224,	8184,	0.01,	0.09,	14.71,	2.01,	1.19,	2.41,	4.16,	13.27,	8.28,	12.50,	0.25,	0.01,	13.50,	14.93,	1641,	1663
43,	8510,	8391,	8967,	8280,	7495,	8313,	7792,	8621,	8233,	8188,	8272,	8263,	8228,	8179,	0.01,	0.09,	14.71,	2.01,	1.19,	2.41,	4.16,	13.27,	8.28,	12.50,	0.25,	0.01,	13.50,	14.93,	1641,	1663
44,	8525,	8403,	8979,	8303,	7476,	8332,	7823,	8649,	8274,	8224,	8284,	8275,	8257,	8198,	0.01,	0.09,	14.71,	2.01,	1.19,	2.41,	4.16,	13.27,	8.28,	12.50,	0.25,	0.01,	13.50,	14.93,	1643,	1657
45,	8536,	8417,	8983,	8304,	7476,	8330,	7830,	8653,	8255,	8213,	8275,	8283,	8258,	8200,	0.01,	0.09,	14.71,	2.01,	1.19,	2.41,	4.16,	13.27,	8.28,	12.50,	0.25,	0.01,	13.50,	14.93,	1643,	1656
46,	8524,	8416,	8974,	8297,	7476,	8321,	7809,	8620,	8215,	8185,	8268,	8274,	8239,	8184,	0.01,	0.09,	14.71,	2.01,	1.19,	2.41,	4.16,	13.27,	8.28,	12.50,	0.25,	0.01,	13.50,	14.93,	1645,	1655
47,	8509,	8385,	8969,	8291,	7461,	8310,	7797,	8614,	8236,	8183,	8267,	8268,	8238,	8179,	0.01,	0.09,	14.71,	2.01,	1.19,	2.41,	4.16,	13.27,	8.28,	12.50,	0.25,	0.01,	13.50,	14.93,	1646,	1656
48,	8503,	8371,	8962,	8277,	7477,	8294,	7791,	8622,	8257,	8182,	8264,	8263,	8234,	8177,	0.01,	0.09,	14.71,	2.01,	1.19,	2.41,	4.16,	13.27,	8.28,	12.50,	0.25,	0.01,	13.50,	14.93,	1647,	1656
49,	8506,	8394,	8951,	8280,	7495,	8304,	7790,	8609,	8239,	8176,	8260,	8251,	8220,	8170,	0.01,	0.09,	14.71,	2.01,	1.19,	2.41,	4.16,	13.27,	8.28,	12.50,	0.25,	0.01,	13.50,	14.93,	1648,	1653
50,	8507,	8401,	8943,	8287,	7474,	8320,	7800,	8601,	8226,	8174,	8252,	8245,	8222,	8167,	0.01,	0.09,	14.71,	2.01,	1.19,	2.41,	4.16,	13.27,	8.28,	12.50,	0.25,	0.01,	13.50,	14.93,	1648,	1652
51,	8499,	8375,	8942,	8275,	7465,	8304,	7803,	8615,	8232,	8183,	8252,	8243,	8225,	8165,	0.01,	0.09,	14.71,	2.01,	1.19,	2.41,	4.16,	13.27,	8.28,	12.50,	0.25,	0.01,	13.50,	14.93,	1648,	1651
52,	8499,	8375,	8948,	8278,	7479,	8302,	7797,	8625,	8241,	8187,	8267,	8246,	8222,	8166,	0.01,	0.09,	14.71,	2.01,	1.19,	2.41,	4.16,	13.27,	8.28,	12.50,	0.25,	0.01,	13.50,	14.93,	1649,	1653
53,	8509,	8392,	8945,	8281,	7474,	8326,	7802,	8620,	8251,	8176,	8263,	8250,	8221,	8174,	0.01,	0.09,	14.71,	2.01,	1.19,	2.41,	4.16,	13.27,	8.28,	12.50,	0.25,	0.01,	13.50,	14.93,	1650,	1652
54,	8501,	8374,	8929,	8256,	7469,	8321,	7802,	8602,	8241,	8172,	8237,	8238,	8220,	8161,	0.01,	0.09,	14.71,	2.01,	1.19,	2.41,	4.16,	13.27,	8.28,	12.50,	0.25,	0.01,	13.50,	14.93,	1649,	1654
55,	8499,	8375,	8939,	8270,	7477,	8305,	7795,	8595,	8231,	8184,	8240,	8241,	8224,	8151,	0.01,	0.09,	14.71,	2.01,	1.19,	2.41,	4.16,	13.27,	8.28,	12.50,	0.25,	0.01,	13.50,	14.93,	1651,	1653
56,	8519,	8407,	8963,	8317,	7476,	8322,	7803,	8605,	8241,	8179,	8250,	8264,	8230,	8167,	0.01,	0.09,	14.71,	2.01,	1.19,	2.41,	4.16,	13.27,	8.28,	12.50,	0.25,	0.01,	13.50,	14.93,	1650,	1655
57,	8517,	8410,	8957,	8311,	7479,	8326,	7803,	8593,	8231,	8154,	8217,	8253,	8219,	8162,	0.01,	0.09,	14.71,	2.01,	1.19,	2.41,	4.16,	13.27,	8.28,	12.50,	0.25,	0.01,	13.50,	14.93,	1651,	1656
58,	8504,	8397,	8939,	8293,	7505,	8314,	7793,	8582,	8219,	8159,	8197,	8227,	8215,	8145,	0.01,	0.09,	14.71,	2.01,	1.19,	2.41,	4.16,	13.27,	8.28,	12.50,	0.25,	0.01,	13.50,	14.93,	1650,	1656
59,	8514,	8406,	8944,	8306,	7504,	8313,	7800,	8597,	8235,	8176,	8223,	8242,	8226,	8157,	0.01,	0.09,	14.71,	2.01,	1.19,	2.41,	4.16,	13.27,	8.28,	12.50,	0.25,	0.01,	13.50,	14.93,	1651,	1655
60,	8510,	8397,	8949,	8290,	7472,	8309,	7804,	8591,	8228,	8150,	8224,	8255,	8215,	8160,	0.01,	0.09,	14.71,	2.01,	1.19,	2.41,	4.16,	13.27,	8.28,	12.50,	0.25,	0.01,	13.50,	14.93,	1650,	1654
61,	8489,	8377,	8938,	8269,	7475,	8318,	7803,	8571,	8210,	8125,	8199,	8231,	8196,	8145,	0.01,	0.09,	14.71,	2.01,	1.19,	2.41,	4.16,	13.27,	8.28,	12.50,	0.25,	0.01,	13.50,	14.93,	1649,	1655
62,	8484,	8383,	8934,	8279,	7491,	8326,	7798,	8574,	8218,	8147,	8200,	8219,	8207,	8138,	0.01,	0.09,	14.71,	2.01,	1.19,	2.41,	4.16,	13.27,	8.28,	12.50,	0.25,	0.01,	13.50,	14.93,	1650,	1655
63,	8487,	8384,	8934,	8285,	7499,	8308,	7792,	8591,	8241,	8177,	8211,	8231,	8222,	8141,	0.01,	0.09,	14.71,	2.01,	1.19,	2.41,	4.16,	13.27,	8.28,	12.50,	0.25,	0.01,	13.50,	14.93,	1649,	1656
64,	8488,	8377,	8924,	8283,	7498,	8306,	7799,	8600,	8257,	8177,	8203,	8227,	8228,	8148,	0.04,	0.09,	14.71,	2.01,	1.19,	2.41,	4.16,	13.27,	8.28,	12.50,	0.25,	0.01,	13.50,	14.93,	1649,	1654
65,	8488,	8378,	8926,	8277,	7478,	8316,	7804,	8594,	8248,	8153,	8201,	8217,	8229,	8152,	0.04,	0.06,	14.71,	2.01,	1.19,	2.41,	4.16,	13.27,	8.28,	12.50,	0.25,	0.01,	13.50,	14.93,	1649,	1656
66,	8495,	8382,	8937,	8275,	7486,	8314,	7810,	8592,	8239,	8146,	8217,	8226,	8228,	8156,	0.04,	0.06,	14.73,	2.01,	1.19,	2.41,	4.16,	13.27,	8.28,	12.50,	0.25,	0.01,	13.50,	14.93,	1651,	1656
67,	8498,	8379,	8929,	8275,	7513,	8323,	7822,	8599,	8241,	8153,	8221,	8226,	8234,	8155,	0.04,	0.06,	14.73,	2.04,	1.19,	2.41,	4.16,	13.27,	8.28,	12.50,	0.25,	0.01,	13.50,	14.93,	1648,	1658
68,	8485,	8370,	8911,	8272,	7502,	8331,	7819,	8600,	8238,	8133,	8207,	8219,	8236,	8141,	0.04,	0.06,	14.73,	2.04,	1.23,	2.41,	4.16,	13.27,	8.28,	12.50,	0.25,	0.01,	13.50,	14.93,	1650,	1658
69,	8477,	8369,	8913,	8268,	7490,	8315,	7806,	8596,	8230,	8120,	8202,	8229,	8234,	8141,	0.04,	0.06,	14.73,	2.04,	1.23,	2.40,	4.16,	13.27,	8.28,	12.50,	0.25,	0.01,	13.50,	14.93,	1649,	1657
70,	8485,	8367,	8914,	8263,	7494,	8298,	7802,	8591,	8232,	8136,	8198,	8229,	8238,	8142,	0.04,	0.06,	14.73,	2.04,	1.23,	2.40,	4.18,	13.27,	8.28,	12.50,	0.25,	0.01,	13.50,	14.93,	1649,	1659
71,	8487,	8369,	8906,	8264,	7482,	8302,	7807,	8593,	8245,	8158,	8201,	8218,	8251,	8135,	0.04,	0.06,	14.73,	2.04,	1.23,	2.40,	4.18,	13.32,	8.28,	12.50,	0.25,	0.01,	13.50,	14.93,	1649,	1658
72,	8495,	8385,	8929,	8281,	7487,	8321,	7815,	8599,	8250,	8182,	8229,	8241,	8270,	8152,	0.04,	0.06,	14.73,	2.04,	1.23,	2.40,	4.18,	13.32,	8.28,	12.50,	0.25,	0.01,	13.50,	14.93,	1648,	1658
73,	8508,	8394,	8946,	8292,	7509,	8326,	7813,	8587,	8236,	8171,	8237,	8259,	8276,	8168,	0.04,	0.06,	14.73,	2.04,	1.23,	2.40,	4.18,	13.32,	8.28,	12.52,	0.25,	0.01,	13.50,	14.93,	1648,	1656
74,	8496,	8382,	8923,	8279,	7483,	8303,	7795,	8564,	8220,	8119,	8208,	8240,	8252,	8145,	0.04,	0.06,	14.73,	2.04,	1.23,	2.40,	4.18,	13.32,	8.28,	12.52,	0.28,	0.01,	13.50,	14.93,	1648,	1655
75,	8488,	8377,	8924,	8270,	7460,	8286,	7789,	8559,	8222,	8114,	8204,	8247,	8249,	8138,	0.04,	0.06,	14.73,	2.04,	1.23,	2.40,	4.18,	13.32,	8.28,	12.52,	0.28,	0.01,	13.50,	14.93,	1650,	1652
76,	8513,	8392,	8952,	8276,	7496,	8298,	7790,	8567,	8227,	8155,	8232,	8273,	8284,	8170,	0.04,	0.06,	14.73,	2.04,	1.23,	2.40,	4.18,	13.32,	8.28,	12.52,	0.28,	0.01,	13.78,	14.93,	1650,	1651
77,	8529,	8403,	8959,	8287,	7517,	8308,	7789,	8563,	8223,	8152,	8239,	8273,	8291,	8183,	0.04,	0.06,	14.73,	2.04,	1.23,	2.40,	4.18,	13.32,	8.28,	12.52,	0.28,	0.01,	13.78,	14.95,	1651,	1648
78,	8517,	8403,	8959,	8303,	7507,	8312,	7803,	8562,	8224,	8142,	8230,	8268,	8275,	8178,	0.04,	0.06,	14.73,	2.04,	1.23,	2.40,	4.18,	13.32,	8.28,	12.52,	0.28,	0.01,	13.78,	14.95,	1651,	1649
79,	8521,	8417,	8975,	8312,	7505,	8314,	7807,	8575,	8239,	8182,	8248,	8282,	8295,	8187,	0.04,	0.06,	14.73,	2.04,	1.23,	2.40,	4.18,	13.32,	8.28,	12.52,	0.28,	0.04,	13.78,	14.95,	1652,	1650
80,	8538,	8434,	8977,	8306,	7498,	8305,	7790,	8588,	8258,	8197,	8270,	8285,	8322,	8194,	0.04,	0.06,	14.73,	2.04,	1.23,	2.40,	4.18,	13.32,	8.28,	12.52,	0.28,	0.04,	13.78,	14.95,	1652,	1650
81,	8529,	8423,	8960,	8302,	7482,	8298,	7789,	8583,	8258,	8167,	8251,	8273,	8306,	8178,	0.04,	0.06,	14.73,	2.04,	1.23,	2.40,	4.18,	13.32,	8.28,	12.52,	0.28,	0.04,	13.78,	14.95,	1652,	1649
82,	8496,	8400,	8943,	8296,	7478,	8298,	7794,	8562,	8230,	8149,	8219,	8255,	8278,	8152,	0.04,	0.06,	14.73,	2.04,	1.23,	2.40,	4.18,	13.32,	8.28,	12.52,	0.27,	0.04,	13.78,	14.95,	1652,	1650
83,	8486,	8400,	8937,	8285,	7491,	8289,	7787,	8555,	8220,	8154,	8221,	8243,	8276,	8146,	0.04,	0.06,	14.73,	2.04,	1.23,	2.40,	4.18,	13.32,	8.28,	12.52,	0.27,	0.04,	13.78,	14.95,	1653,	1649
84,	8502,	8413,	8943,	8296,	7498,	8295,	7797,	8575,	8243,	8169,	8244,	8251,	8291,	8155,	0.04,	0.06,	14.73,	2.04,	1.23,	2.40,	4.18,	13.32,	8.28,	12.52,	0.27,	0.04,	13.76,	14.95,	1653,	1650
85,	8499,	8404,	8941,	8309,	7488,	8311,	7805,	8577,	8238,	8172,	8236,	8253,	8294,	8152,	0.04,	0.06,	14.73,	2.04,	1.23,	2.40,	4.18,	13.32,	8.28,	12.52,	0.27,	0.04,	13.76,	14.95,	1654,	1649
86,	8492,	8396,	8932,	8303,	7492,	8314,	7800,	8564,	8227,	8157,	8216,	8240,	8286,	8154,	0.04,	0.06,	14.73,	2.04,	1.23,	2.40,	4.18,	13.32,	8.28,	12.52,	0.24,	0.04,	13.76,	14.95,	1653,	1650
87,	8500,	8401,	8940,	8299,	7509,	8310,	7806,	8581,	8246,	8143,	8217,	8242,	8296,	8165,	0.04,	0.06,	14.73,	2.04,	1.23,	2.40,	4.18,	13.32,	8.28,	12.52,	0.24,	0.03,	13.76,	14.95,	1656,	1650
88,	8494,	8394,	8944,	8297,	7518,	8308,	7809,	8583,	8248,	8150,	8218,	8245,	8305,	8154,	0.04,	0.06,	14.73,	2.04,	1.23,	2.40,	4.18,	13.32,	8.28,	12.52,	0.24,	0.03,	13.76,	14.95,	1654,	1648
89,	8473,	8388,	8922,	8280,	7508,	8300,	7800,	8553,	8231,	8171,	8217,	8234,	8296,	8141,	0.04,	0.06,	14.73,	2.04,	1.23,	2.40,	4.18,	13.32,	8.28,	12.52,	0.24,	0.03,	13.76,	14.93,	1654,	1651
90,	8468,	8383,	8903,	8265,	7477,	8283,	7794,	8546,	8237,	8168,	8217,	8225,	8292,	8145,	0.04,	0.06,	14.73,	2.04,	1.23,	2.40,	4.18,	13.32,	8.28,	12.52,	0.27,	0.03,	13.76,	14.93,	1655,	1651
91,	8477,	8379,	8910,	8275,	7482,	8290,	7798,	8561,	8248,	8149,	8224,	8225,	8296,	8147,	0.04,	0.06,	14.73,	2.04,	1.23,	2.40,	4.18,	13.32,	8.28,	12.52,	0.27,	0.03,	13.76,	14.93,	1654,	1653
92,	8481,	8394,	8921,	8285,	7512,	8307,	7805,	8578,	8257,	8157,	8236,	8237,	8304,	8149,	0.04,	0.06,	14.73,	2.04,	1.23,	2.40,	4.18,	13.32,	8.28,	12.52,	0.27,	0.03,	13.76,	14.93,	1654,	1654
93,	8475,	8398,	8919,	8272,	7492,	8302,	7807,	8587,	8268,	8177,	8238,	8241,	8321,	8149,	0.04,	0.06,	14.73,	2.04,	1.23,	2.40,	4.18,	13.32,	8.28,	12.52,	0.27,	0.03,	13.76,	14.98,	1653,	1654
94,	8470,	8381,	8914,	8264,	7471,	8292,	7802,	8587,	8264,	8179,	8235,	8228,	8327,	8139,	0.04,	0.06,	14.73,	2.04,	1.23,	2.40,	4.18,	13.32,	8.28,	12.52,	0.27,	0.03,	13.76,	14.98,	1653,	1654
95,	8471,	8372,	8914,	8271,	7481,	8289,	7795,	8577,	8248,	8177,	8233,	8225,	8318,	8134,	0.04,	0.06,	14.73,	2.04,	1.23,	2.40,	4.18,	13.32,	8.28,	12.52,	0.27,	0.04,	13.76,	14.98,	1651,	1655
96,	8472,	8383,	8921,	8271,	7484,	8289,	7797,	8574,	8252,	8185,	8234,	8237,	8335,	8140,	0.04,	0.06,	14.73,	2.04,	1.23,	2.40,	4.18,	13.32,	8.28,	12.52,	0.27,	0.04,	13.76,	14.98,	1652,	1657
97,	8476,	8388,	8925,	8277,	7501,	8299,	7805,	8588,	8274,	8192,	8243,	8246,	8358,	8151,	0.04,	0.06,	14.73,	2.04,	1.23,	2.40,	4.18,	13.32,	8.28,	12.52,	0.27,	0.04,	13.76,	14.95,	1650,	1658
98,	8479,	8379,	8916,	8283,	7514,	8302,	7800,	8584,	8263,	8173,	8243,	8239,	8340,	8147,	0.04,	0.06,	14.73,	2.04,	1.23,	2.40,	4.18,	13.32,	8.28,	12.52,	0.24,	0.04,	13.76,	14.95,	1651,	1656
99,	8474,	8364,	8911,	8271,	7478,	8287,	7790,	8566,	8239,	8143,	8229,	8230,	8324,	8136,	0.04,	0.06,	14.73,	2.04,	1.23,	2.40,	4.18,	13.32,	8.28,	12.52,	0.24,	0.03,	13.76,	14.95,	1649,	1654
100,	8472,	8362,	8915,	8270,	7466,	8290,	7800,	8579,	8254,	8168,	8229,	8240,	8344,	8144,	0.04,	0.06,	14.73,	2.04,	1.23,	2.40,	4.18,	13.32,	8.28,	12.52,	0.24,	0.03,	13.75,	14.95,	1649,	1653
101,	8476,	8385,	8917,	8281,	7503,	8309,	7814,	8592,	8268,	8210,	8229,	8243,	8361,	8148,	0.04,	0.06,	14.73,	2.04,	1.23,	2.40,	4.18,	13.32,	8.28,	12.52,	0.24,	0.03,	13.75,	14.96,	1649,	1652
102,	8470,	8383,	8910,	8272,	7505,	8305,	7804,	8564,	8245,	8177,	8222,	8221,	8345,	8134,	0.04,	0.06,	14.73,	2.04,	1.23,	2.40,	4.18,	13.32,	8.28,	12.52,	0.24,	0.03,	13.75,	14.96,	1647,	1654
103,	8464,	8355,	8908,	8256,	7491,	8287,	7787,	8542,	8232,	8126,	8225,	8217,	8330,	8135,	0.04,	0.06,	14.73,	2.04,	1.23,	2.40,	4.18,	13.32,	8.28,	12.52,	0.27,	0.01,	13.79,	14.93,	1647,	1653
104,	8470,	8359,	8911,	8269,	7519,	8287,	7790,	8557,	8250,	8148,	8233,	8238,	8347,	8151,	0.04,	0.06,	14.73,	2.04,	1.23,	2.40,	4.18,	13.32,	8.28,	12.52,	0.27,	0.01,	13.79,	14.93,	1646,	1655
105,	8479,	8385,	8915,	8293,	7509,	8304,	7803,	8568,	8254,	8193,	8243,	8239,	8369,	8149,	0.04,	0.06,	14.73,	2.04,	1.23,	2.40,	4.18,	13.32,	8.28,	12.52,	0.27,	0.01,	13.79,	14.93,	1646,	1654
106,	8491,	8371,	8927,	8291,	7462,	8311,	7814,	8575,	8253,	8195,	8258,	8236,	8374,	8146,	0.04,	0.06,	14.73,	2.04,	1.23,	2.40,	4.18,	13.32,	8.28,	12.52,	0.27,	0.01,	13.79,	14.93,	1644,	1654
107,	8495,	8357,	8939,	8285,	7476,	8306,	7825,	8587,	8276,	8181,	8264,	8250,	8377,	8157,	0.04,	0.06,	14.73,	2.04,	1.23,	2.40,	4.18,	13.32,	8.28,	12.52,	0.27,	0.01,	13.79,	14.93,	1644,	1653
108,	8485,	8377,	8939,	8291,	7514,	8306,	7819,	8570,	8274,	8180,	8255,	8253,	8380,	8159,	0.04,	0.06,	14.73,	2.04,	1.23,	2.40,	4.18,	13.32,	8.28,	12.52,	0.27,	0.01,	13.79,	14.93,	1642,	1653
109,	8481,	8394,	8936,	8300,	7523,	8315,	7816,	8563,	8261,	8192,	8257,	8254,	8380,	8152,	0.04,	0.06,	14.73,	2.04,	1.23,	2.40,	4.18,	13.32,	8.28,	12.52,	0.27,	0.01,	13.79,	14.93,	1643,	1654
110,	8494,	8389,	8941,	8299,	7515,	8318,	7831,	8595,	8277,	8203,	8269,	8268,	8383,	8153,	0.04,	0.06,	14.73,	2.04,	1.23,	2.40,	4.18,	13.32,	8.28,	12.52,	0.28,	0.01,	13.79,	14.93,	1642,	1653
111,	8494,	8381,	8941,	8279,	7499,	8302,	7817,	8588,	8283,	8205,	8271,	8269,	8383,	8152,	0.04,	0.06,	14.73,	2.04,	1.23,	2.40,	4.18,	13.32,	8.28,	12.52,	0.28,	0.01,	13.79,	14.93,	1641,	1655
112,	8479,	8376,	8937,	8275,	7496,	8293,	7799,	8561,	8268,	8209,	8264,	8259,	8382,	8154,	0.04,	0.06,	14.73,	2.04,	1.23,	2.40,	4.18,	13.32,	8.28,	12.52,	0.28,	0.01,	13.79,	14.93,	1641,	1654
113,	8481,	8379,	8945,	8298,	7513,	8300,	7808,	8575,	8272,	8206,	8261,	8261,	8389,	8164,	0.04,	0.06,	14.73,	2.04,	1.23,	2.40,	4.18,	13.32,	8.28,	12.52,	0.28,	0.01,	13.79,	14.93,	1640,	1654
114,	8495,	8385,	8947,	8313,	7511,	8302,	7805,	8585,	8283,	8195,	8271,	8270,	8384,	8173,	0.04,	0.06,	14.73,	2.04,	1.23,	2.40,	4.18,	13.32,	8.28,	12.52,	0.25,	0.01,	13.79,	14.93,	1642,	1652
115,	8490,	8380,	8939,	8296,	7494,	8293,	7795,	8560,	8268,	8188,	8274,	8259,	8369,	8162,	0.04,	0.06,	14.73,	2.04,	1.23,	2.40,	4.18,	13.32,	8.28,	12.52,	0.25,	0.04,	13.79,	14.93,	1642,	1653
116,	8476,	8375,	8937,	8283,	7510,	8291,	7801,	8544,	8247,	8180,	8258,	8242,	8362,	8148,	0.04,	0.06,	14.73,	2.04,	1.23,	2.40,	4.18,	13.32,	8.28,	12.52,	0.25,	0.04,	13.76,	14.93,	1643,	1652
117,	8486,	8381,	8936,	8294,	7526,	8304,	7812,	8552,	8250,	8176,	8255,	8253,	8366,	8157,	0.04,	0.06,	14.73,	2.04,	1.23,	2.40,	4.18,	13.32,	8.28,	12.52,	0.25,	0.04,	13.76,	14.93,	1643,	1651
118,	8495,	8383,	8930,	8295,	7499,	8304,	7807,	8551,	8258,	8182,	8262,	8265,	8363,	8161,	0.04,	0.06,	14.73,	2.04,	1.23,	2.40,	4.18,	13.32,	8.28,	12.52,	0.28,	0.04,	13.76,	14.93,	1644,	1651
119,	8484,	8391,	8933,	8287,	7502,	8302,	7808,	8552,	8259,	8190,	8265,	8262,	8356,	8149,	0.04,	0.06,	14.73,	2.04,	1.23,	2.40,	4.18,	13.32,	8.28,	12.52,	0.28,	0.00,	13.76,	14.93,	1644,	1650
120,	8477,	8390,	8937,	8290,	7540,	8308,	7816,	8567,	8263,	8193,	8275,	8260,	8368,	8150,	0.04,	0.06,	14.73,	2.04,	1.23,	2.40,	4.18,	13.32,	8.28,	12.52,	0.28,	0.00,	13.75,	14.93,	1645,	1649
121,	8475,	8371,	8928,	8292,	7544,	8294,	7809,	8560,	8260,	8182,	8264,	8250,	8372,	8153,	0.04,	0.06,	14.73,	2.04,	1.23,	2.40,	4.18,	13.32,	8.28,	12.52,	0.28,	0.00,	13.75,	14.95,	1646,	1649
122,	8485,	8371,	8929,	8293,	7529,	8291,	7813,	8547,	8261,	8178,	8243,	8249,	8357,	8158,	0.04,	0.06,	14.73,	2.04,	1.23,	2.40,	4.18,	13.32,	8.28,	12.52,	0.25,	0.00,	13.75,	14.95,	1646,	1652
123,	8509,	8393,	8947,	8300,	7510,	8311,	7824,	8549,	8264,	8184,	8249,	8270,	8355,	8172,	0.04,	0.06,	14.73,	2.04,	1.23,	2.40,	4.18,	13.32,	8.28,	12.52,	0.25,	0.00,	13.75,	14.95,	1647,	1652
124,	8503,	8393,	8939,	8306,	7505,	8312,	7819,	8550,	8257,	8182,	8259,	8268,	8363,	8170,	0.04,	0.06,	14.73,	2.04,	1.23,	2.40,	4.18,	13.32,	8.28,	12.52,	0.25,	0.00,	13.79,	14.95,	1646,	1655
125,	8475,	8384,	8918,	8303,	7526,	8301,	7813,	8544,	8261,	8178,	8247,	8254,	8359,	8151,	0.04,	0.06,	14.73,	2.04,	1.23,	2.40,	4.18,	13.32,	8.28,	12.52,	0.25,	0.00,	13.79,	14.95,	1647,	1654
126,	8484,	8386,	8925,	8295,	7533,	8305,	7816,	8545,	8261,	8168,	8234,	8261,	8353,	8148,	0.04,	0.06,	14.73,	2.04,	1.23,	2.40,	4.18,	13.32,	8.28,	12.52,	0.24,	0.00,	13.79,	14.95,	1647,	1652
127,	8509,	8388,	8943,	8299,	7530,	8308,	7820,	8549,	8250,	8172,	8246,	8270,	8356,	8164,	0.04,	0.06,	14.73,	2.04,	1.23,	2.40,	4.18,	13.32,	8.28,	12.52,	0.24,	0.00,	13.79,	14.95,	1647,	1648
0,	8495,	8406,	8939,	8319,	7560,	8307,	7830,	8579,	8284,	8207,	8263,	8282,	8382,	8176,	0.03,	0.06,	14.73,	2.04,	1.23,	2.40,	4.18,	13.32,	8.28,	12.52,	0.24,	0.00,	13.79,	14.95,	1647,	1642
1,	8508,	8410,	8940,	8330,	7557,	8323,	7840,	8583,	8285,	8182,	8266,	8281,	8383,	8176,	0.03,	0.06,	14.73,	2.04,	1.23,	2.40,	4.18,	13.32,	8.28,	12.52,	0.24,	0.00,	13.79,	14.95,	1648,	1641
2,	8508,	8401,	8943,	8319,	7542,	8316,	7839,	8577,	8263,	8178,	8261,	8271,	8369,	8175,	0.03,	0.06,	14.74,	2.04,	1.23,	2.40,	4.18,	13.32,	8.28,	12.52,	0.24,	0.00,	13.79,	14.95,	1647,	1642
3,	8495,	8396,	8929,	8299,	7540,	8303,	7831,	8578,	8261,	8185,	8247,	8264,	8374,	8173,	0.03,	0.06,	14.74,	2.12,	1.23,	2.40,	4.18,	13.32,	8.28,	12.52,	0.24,	0.00,	13.79,	14.95,	1646,	1642
4,	8487,	8393,	8916,	8295,	7548,	8300,	7815,	8565,	8267,	8171,	8246,	8263,	8380,	8163,	0.03,	0.06,	14.74,	2.12,	1.23,	2.40,	4.18,	13.32,	8.28,	12.52,	0.24,	0.00,	13.79,	14.95,	1640,	1636
5,	8482,	8383,	8913,	8291,	7530,	8298,	7809,	8543,	8260,	8170,	8260,	8256,	8374,	8155,	0.03,	0.06,	14.74,	2.12,	1.23,	2.39,	4.18,	13.32,	8.28,	12.52,	0.24,	0.00,	13.79,	14.95,	1633,	1633
6,	8488,	8382,	8915,	8289,	7504,	8292,	7825,	8548,	8254,	8181,	8260,	8254,	8380,	8163,	0.03,	0.06,	14.74,	2.12,	1.23,	2.39,	4.16,	13.32,	8.28,	12.52,	0.24,	0.00,	13.79,	14.95,	1625,	1632
7,	8498,	8379,	8913,	8294,	7513,	8293,	7833,	8557,	8256,	8169,	8249,	8261,	8391,	8170,	0.03,	0.06,	14.74,	2.12,	1.23,	2.39,	4.16,	13.29,	8.28,	12.52,	0.24,	0.00,	13.79,	14.95,	1615,	1633
8,	8503,	8368,	8914,	8290,	7541,	8303,	7829,	8564,	8274,	8175,	8262,	8268,	8394,	8171,	0.03,	0.06,	14.74,	2.12,	1.23,	2.39,	4.16,	13.29,	8.31,	12.52,	0.24,	0.00,	13.79,	14.95,	1604,	1633
9,	8499,	8378,	8913,	8273,	7532,	8301,	7818,	8566,	8277,	8194,	8275,	8265,	8400,	8172,	0.03,	0.06,	14.74,	2.12,	1.23,	2.39,	4.16,	13.29,	8.31,	12.53,	0.24,	0.00,	13.79,	14.95,	1591,	1635
10,	8492,	8399,	8916,	8279,	7507,	8286,	7808,	8545,	8260,	8185,	8259,	8267,	8408,	8170,	0.03,	0.06,	14.74,	2.12,	1.23,	2.39,	4.16,	13.29,	8.31,	12.53,	0.24,	0.00,	13.79,	14.95,	1579,	1638
11,	8505,	8400,	8934,	8308,	7505,	8294,	7821,	8543,	8271,	8184,	8270,	8285,	8420,	8182,	0.03,	0.06,	14.74,	2.12,	1.23,	2.39,	4.16,	13.29,	8.31,	12.53,	0.24,	0.01,	13.79,	14.95,	1568,	1642
12,	8516,	8394,	8948,	8313,	7510,	8307,	7830,	8562,	8290,	8191,	8302,	8292,	8433,	8193,	0.03,	0.06,	14.74,	2.12,	1.23,	2.39,	4.16,	13.29,	8.31,	12.53,	0.24,	0.01,	13.84,	14.95,	1557,	1650
13,	8507,	8397,	8933,	8289,	7521,	8300,	7822,	8565,	8280,	8179,	8275,	8276,	8418,	8177,	0.03,	0.06,	14.74,	2.12,	1.23,	2.39,	4.16,	13.29,	8.31,	12.53,	0.24,	0.01,	13.84,	14.96,	1549,	1656
14,	8497,	8384,	8910,	8269,	7518,	8303,	7830,	8553,	8263,	8171,	8217,	8255,	8402,	8163,	0.03,	0.06,	14.74,	2.12,	1.23,	2.39,	4.16,	13.29,	8.31,	12.53,	0.27,	0.01,	13.84,	14.96,	1540,	1666
15,	8495,	8366,	8906,	8259,	7515,	8328,	7855,	8542,	8248,	8179,	8222,	8251,	8400,	8168,	0.03,	0.06,	14.74,	2.12,	1.23,	2.39,	4.16,	13.29,	8.31,	12.53,	0.27,	0.04,	13.84,	14.96,	1534,	1670
16,	8492,	8376,	8911,	8257,	7537,	8339,	7860,	8542,	8248,	8194,	8267,	8261,	8412,	8170,	0.03,	0.06,	14.74,	2.12,	1.23,	2.39,	4.16,	13.29,	8.31,	12.53,	0.27,	0.04,	13.84,	14.96,	1527,	1673
17,	8493,	8390,	8921,	8261,	7532,	8318,	7834,	8548,	8273,	8204,	8287,	8265,	8437,	8170,	0.03,	0.06,	14.74,	2.12,	1.23,	2.39,	4.16,	13.29,	8.31,	12.53,	0.27,	0.04,	13.84,	14.96,	1525,	1678
18,	8507,	8386,	8933,	8266,	7515,	8313,	7831,	8567,	8307,	8231,	8307,	8275,	8469,	8189,	0.03,	0.06,	14.74,	2.12,	1.23,	2.39,	4.16,	13.29,	8.31,	12.53,	0.27,	0.04,	13.84,	14.96,	1524,	1682
19,	8530,	8390,	8945,	8263,	7536,	8334,	7862,	8602,	8338,	8273,	8349,	8302,	8505,	8212,	0.03,	0.06,	14.74,	2.12,	1.23,	2.39,	4.16,	13.29,	8.31,	12.53,	0.27,	0.04,	13.84,	14.96,	1526,	1686
20,	8540,	8404,	8946,	8254,	7562,	8349,	7877,	8626,	8357,	8287,	8374,	8316,	8530,	8225,	0.03,	0.06,	14.74,	2.12,	1.23,	2.39,	4.16,	13.29,	8.31,	12.53,	0.27,	0.04,	13.84,	14.96,	1530,	1687
21,	8526,	8386,	8928,	8244,	7539,	8349,	7872,	8629,	8366,	8286,	8375,	8304,	8544,	8232,	0.03,	0.06,	14.74,	2.12,	1.23,	2.39,	4.16,	13.29,	8.31,	12.53,	0.27,	0.04,	13.84,	14.96,	1537,	1685
22,	8518,	8356,	8913,	8228,	7527,	8341,	7872,	8622,	8360,	8284,	8363,	8290,	8541,	8225,	0.03,	0.06,	14.74,	2.12,	1.23,	2.39,	4.16,	13.29,	8.31,	12.53,	0.27,	0.04,	13.84,	14.96,	1544,	1680
23,	8520,	8369,	8908,	8227,	7551,	8338,	7872,	8618,	8355,	8275,	8363,	8292,	8534,	8220,	0.03,	0.06,	14.74,	2.12,	1.23,	2.39,	4.16,	13.29,	8.31,	12.53,	0.27,	0.04,	13.84,	14.96,	1552,	1678
24,	8506,	8386,	8894,	8239,	7532,	8336,	7863,	8611,	8356,	8258,	8355,	8288,	8532,	8218,	0.03,	0.06,	14.74,	2.12,	1.23,	2.39,	4.16,	13.29,	8.31,	12.53,	0.27,	0.04,	13.84,	14.96,	1561,	1675
25,	8498,	8374,	8875,	8238,	7492,	8332,	7859,	8601,	8349,	8248,	8331,	8270,	8532,	8207,	0.03,	0.06,	14.74,	2.12,	1.23,	2.39,	4.16,	13.29,	8.31,	12.53,	0.27,	0.04,	13.84,	14.96,	1569,	1674
26,	8516,	8376,	8883,	8249,	7505,	8339,	7865,	8613,	8358,	8252,	8339,	8279,	8548,	8215,	0.03,	0.06,	14.74,	2.12,	1.23,	2.39,	4.16,	13.29,	8.31,	12.53,	0.27,	0.04,	13.84,	14.96,	1579,	1670
27,	8521,	8383,	8893,	8271,	7540,	8349,	7870,	8625,	8371,	8254,	8364,	8295,	8562,	8227,	0.03,	0.06,	14.74,	2.12,	1.23,	2.39,	4.16,	13.29,	8.31,	12.53,	0.27,	0.04,	13.84,	14.96,	1587,	1664
28,	8504,	8373,	8882,	8269,	7545,	8350,	7868,	8620,	8379,	8247,	8354,	8282,	8561,	8212,	0.03,	0.06,	14.74,	2.12,	1.23,	2.39,	4.16,	13.29,	8.31,	12.53,	0.27,	0.04,	13.84,	14.96,	1598,	1659
29,	8499,	8375,	8880,	8260,	7531,	8350,	7877,	8628,	8384,	8238,	8336,	8267,	8550,	8199,	0.03,	0.06,	14.74,	2.12,	1.23,	2.39,	4.16,	13.29,	8.31,	12.53,	0.27,	0.04,	13.84,	14.96,	1607,	1653
30,	8495,	8377,	8878,	8261,	7516,	8346,	7880,	8633,	8371,	8235,	8324,	8263,	8533,	8197,	0.03,	0.06,	14.74,	2.12,	1.23,	2.39,	4.16,	13.29,	8.31,	12.53,	0.27,	0.04,	13.84,	14.96,	1617,	1652
31,	8485,	8358,	8854,	8266,	7516,	8335,	7871,	8620,	8355,	8237,	8302,	8259,	8532,	8182,	0.03,	0.06,	14.74,	2.12,	1.23,	2.39,	4.16,	13.29,	8.31,	12.53,	0.27,	0.04,	13.84,	14.96,	1626,	1650
32,	8481,	8352,	8839,	8263,	7523,	8329,	7865,	8611,	8356,	8225,	8289,	8247,	8530,	8172,	0.03,	0.06,	14.74,	2.12,	1.23,	2.39,	4.16,	13.29,	8.31,	12.53,	0.27,	0.04,	13.84,	14.96,	1637,	1649
33,	8479,	8362,	8846,	8260,	7515,	8325,	7860,	8612,	8358,	8213,	8297,	8247,	8524,	8182,	0.03,	0.06,	14.74,	2.12,	1.23,	2.39,	4.16,	13.29,	8.31,	12.53,	0.27,	0.04,	13.84,	14.96,	1648,	1647
34,	8469,	8369,	8845,	8262,	7514,	8320,	7857,	8621,	8365,	8234,	8311,	8259,	8534,	8191,	0.03,	0.06,	14.74,	2.12,	1.23,	2.39,	4.16,	13.29,	8.31,	12.53,	0.27,	0.04,	13.84,	14.96,	1659,	1644
35,	8463,	8357,	8829,	8253,	7518,	8321,	7857,	8622,	8372,	8253,	8304,	8256,	8538,	8184,	0.03,	0.06,	14.74,	2.12,	1.23,	2.39,	4.16,	13.29,	8.31,	12.53,	0.27,	0.04,	13.84,	14.96,	1673,	1638
36,	8467,	8353,	8819,	8245,	7517,	8320,	7858,	8613,	8367,	8231,	8287,	8243,	8527,	8171,	0.03,	0.06,	14.74,	2.12,	1.23,	2.39,	4.16,	13.29,	8.31,	12.53,	0.27,	0.04,	13.84,	14.96,	1682,	1635
37,	8468,	8375,	8828,	8259,	7514,	8329,	7865,	8618,	8366,	8228,	8288,	8253,	8536,	8172,	0.03,	0.06,	14.74,	2.12,	1.23,	2.39,	4.16,	13.29,	8.31,	12.53,	0.27,	0.04,	13.84,	14.96,	1695,	1632
38,	8477,	8393,	8851,	8269,	7521,	8338,	7885,	8632,	8376,	8267,	8314,	8280,	8564,	8189,	0.03,	0.06,	14.74,	2.12,	1.23,	2.39,	4.16,	13.29,	8.31,	12.53,	0.27,	0.04,	13.84,	14.96,	1705,	1631
39,	8493,	8390,	8857,	8252,	7541,	8336,	7899,	8633,	8371,	8278,	8326,	8288,	8565,	8202,	0.03,	0.06,	14.74,	2.12,	1.23,	2.39,	4.16,	13.29,	8.31,	12.53,	0.27,	0.04,	13.84,	14.96,	1714,	1632
40,	8481,	8373,	8828,	8237,	7542,	8331,	7881,	8616,	8350,	8247,	8286,	8267,	8539,	8187,	0.03,	0.06,	14.74,	2.12,	1.23,	2.39,	4.16,	13.29,	8.31,	12.53,	0.27,	0.04,	13.84,	14.96,	1723,	1631
41,	8463,	8366,	8810,	8257,	7541,	8328,	7857,	8596,	8346,	8238,	8268,	8249,	8531,	8166,	0.03,	0.06,	14.74,	2.12,	1.23,	2.39,	4.16,	13.29,	8.31,	12.53,	0.27,	0.04,	13.84,	14.96,	1730,	1631
42,	8476,	8382,	8825,	8269,	7544,	8326,	7863,	8601,	8368,	8272,	8312,	8264,	8538,	8173,	0.03,	0.06,	14.74,	2.12,	1.23,	2.39,	4.16,	13.29,	8.31,	12.53,	0.27,	0.04,	13.84,	14.96,	1736,	1629
43,	8481,	8389,	8822,	8230,	7527,	8322,	7877,	8627,	8382,	8283,	8328,	8270,	8540,	8186,	0.03,	0.06,	14.74,	2.12,	1.23,	2.39,	4.16,	13.29,	8.31,	12.53,	0.27,	0.04,	13.84,	14.96,	1738,	1629
44,	8465,	8383,	8804,	8209,	7524,	8322,	7873,	8633,	8373,	8272,	8296,	8257,	8546,	8182,	0.03,	0.06,	14.74,	2.12,	1.23,	2.39,	4.16,	13.29,	8.31,	12.53,	0.27,	0.04,	13.84,	14.96,	1741,	1630
45,	8482,	8386,	8830,	8254,	7538,	8319,	7866,	8616,	8360,	8281,	8292,	8276,	8555,	8180,	0.03,	0.06,	14.74,	2.12,	1.23,	2.39,	4.16,	13.29,	8.31,	12.53,	0.27,	0.04,	13.84,	14.96,	1740,	1631
46,	8504,	8401,	8867,	8288,	7528,	8304,	7863,	8606,	8347,	8259,	8302,	8304,	8541,	8186,	0.03,	0.06,	14.74,	2.12,	1.23,	2.39,	4.16,	13.29,	8.31,	12.53,	0.27,	0.04,	13.84,	14.96,	1739,	1631
47,	8504,	8430,	8886,	8302,	7526,	8302,	7858,	8601,	8338,	8231,	8314,	8326,	8543,	8199,	0.03,	0.06,	14.74,	2.12,	1.23,	2.39,	4.16,	13.29,	8.31,	12.53,	0.27,	0.04,	13.84,	14.96,	1734,	1633
48,	8519,	8455,	8916,	8337,	7549,	8305,	7852,	8591,	8330,	8253,	8345,	8359,	8565,	8216,	0.03,	0.06,	14.74,	2.12,	1.23,	2.39,	4.16,	13.29,	8.31,	12.53,	0.27,	0.04,	13.84,	14.96,	1731,	1635
49,	8528,	8462,	8939,	8361,	7555,	8293,	7846,	8580,	8318,	8262,	8346,	8371,	8560,	8214,	0.03,	0.06,	14.74,	2.12,	1.23,	2.39,	4.16,	13.29,	8.31,	12.53,	0.27,	0.04,	13.84,	14.96,	1726,	1636
50,	8522,	8484,	8944,	8365,	7545,	8292,	7850,	8583,	8314,	8233,	8315,	8363,	8551,	8208,	0.03,	0.06,	14.74,	2.12,	1.23,	2.39,	4.16,	13.29,	8.31,	12.53,	0.27,	0.04,	13.84,	14.96,	1719,	1643
51,	8522,	8496,	8945,	8373,	7552,	8309,	7867,	8593,	8308,	8231,	8294,	8367,	8560,	8216,	0.03,	0.06,	14.74,	2.12,	1.23,	2.39,	4.16,	13.29,	8.31,	12.53,	0.27,	0.04,	13.84,	14.96,	1713,	1645
52,	8521,	8459,	8927,	8366,	7557,	8307,	7874,	8593,	8300,	8245,	8270,	8363,	8552,	8204,	0.03,	0.06,	14.74,	2.12,	1.23,	2.39,	4.16,	13.29,	8.31,	12.53,	0.27,	0.04,	13.84,	14.96,	1705,	1651
53,	8507,	8438,	8903,	8337,	7541,	8293,	7866,	8592,	8300,	8217,	8247,	8336,	8534,	8183,	0.03,	0.06,	14.74,	2.12,	1.23,	2.39,	4.16,	13.29,	8.31,	12.53,	0.27,	0.04,	13.84,	14.96,	1699,	1655
54,	8505,	8458,	8902,	8319,	7546,	8301,	7878,	8604,	8309,	8207,	8257,	8326,	8544,	8192,	0.03,	0.06,	14.74,	2.12,	1.23,	2.39,	4.16,	13.29,	8.31,	12.53,	0.27,	0.04,	13.84,	14.96,	1693,	1660
55,	8512,	8451,	8894,	8305,	7567,	8313,	7891,	8606,	8305,	8227,	8263,	8329,	8561,	8203,	0.03,	0.06,	14.74,	2.12,	1.23,	2.39,	4.16,	13.29,	8.31,	12.53,	0.27,	0.04,	13.84,	14.96,	1687,	1662
56,	8509,	8432,	8877,	8290,	7564,	8299,	7871,	8588,	8291,	8213,	8233,	8318,	8554,	8182,	0.03,	0.06,	14.74,	2.12,	1.23,	2.39,	4.16,	13.29,	8.31,	12.53,	0.27,	0.04,	13.84,	14.96,	1683,	1660
57,	8504,	8446,	8879,	8295,	7559,	8292,	7861,	8586,	8298,	8197,	8214,	8310,	8556,	8174,	0.03,	0.06,	14.74,	2.12,	1.23,	2.39,	4.16,	13.29,	8.31,	12.53,	0.27,	0.04,	13.84,	14.96,	1680,	1657
58,	8496,	8451,	8883,	8289,	7562,	8303,	7879,	8599,	8305,	8213,	8225,	8311,	8578,	8186,	0.03,	0.06,	14.74,	2.12,	1.23,	2.39,	4.16,	13.29,	8.31,	12.53,	0.27,	0.04,	13.84,	14.96,	1676,	1656
59,	8482,	8422,	8872,	8267,	7558,	8305,	7889,	8597,	8294,	8217,	8229,	8314,	8589,	8183,	0.03,	0.06,	14.74,	2.12,	1.23,	2.39,	4.16,	13.29,	8.31,	12.53,	0.27,	0.04,	13.84,	14.96,	1670,	1653
60,	8485,	8415,	8872,	8271,	7557,	8305,	7878,	8592,	8294,	8205,	8233,	8322,	8588,	8178,	0.03,	0.06,	14.74,	2.12,	1.23,	2.39,	4.16,	13.29,	8.31,	12.53,	0.27,	0.04,	13.84,	14.96,	1666,	1653
61,	8505,	8440,	8888,	8289,	7567,	8291,	7864,	8604,	8305,	8216,	8245,	8340,	8604,	8190,	0.03,	0.06,	14.74,	2.12,	1.23,	2.39,	4.16,	13.29,	8.31,	12.53,	0.27,	0.04,	13.84,	14.96,	1664,	1652
62,	8500,	8449,	8884,	8278,	7563,	8269,	7866,	8612,	8305,	8210,	8243,	8338,	8611,	8185,	0.03,	0.06,	14.74,	2.12,	1.23,	2.39,	4.16,	13.29,	8.31,	12.53,	0.27,	0.04,	13.84,	14.96,	1659,	1653
63,	8475,	8435,	8862,	8258,	7547,	8272,	7887,	8613,	8304,	8187,	8230,	8310,	8591,	8166,	0.03,	0.06,	14.74,	2.12,	1.23,	2.39,	4.16,	13.29,	8.31,	12.53,	0.27,	0.04,	13.84,	14.96,	1656,	1656
64,	8478,	8438,	8866,	8274,	7554,	8302,	7905,	8630,	8329,	8209,	8232,	8307,	8599,	8180,	0.01,	0.06,	14.74,	2.12,	1.23,	2.39,	4.16,	13.29,	8.31,	12.53,	0.27,	0.04,	13.84,	14.96,	1651,	1661
65,	8494,	8452,	8886,	8289,	7569,	8311,	7903,	8641,	8342,	8243,	8245,	8333,	8633,	8200,	0.01,	0.10,	14.74,	2.12,	1.23,	2.39,	4.16,	13.29,	8.31,	12.53,	0.27,	0.04,	13.84,	14.96,	1649,	1664
66,	8488,	8442,	8881,	8278,	7568,	8295,	7898,	8626,	8319,	8230,	8244,	8334,	8634,	8190,	0.01,	0.10,	14.73,	2.12,	1.23,	2.39,	4.16,	13.29,	8.31,	12.53,	0.27,	0.04,	13.84,	14.96,	1646,	1665
67,	8488,	8440,	8877,	8287,	7567,	8304,	7907,	8615,	8307,	8217,	8249,	8325,	8619,	8186,	0.01,	0.10,	14.73,	2.12,	1.23,	2.39,	4.16,	13.29,	8.31,	12.53,	0.27,	0.04,	13.84,	14.96,	1644,	1667
68,	8491,	8456,	8886,	8298,	7563,	8310,	7906,	8605,	8302,	8219,	8252,	8335,	8622,	8189,	0.01,	0.10,	14.73,	2.12,	1.16,	2.39,	4.16,	13.29,	8.31,	12.53,	0.27,	0.04,	13.84,	14.96,	1642,	1668
69,	8479,	8451,	8878,	8279,	7571,	8296,	7890,	8592,	8290,	8201,	8239,	8333,	8629,	8187,	0.01,	0.10,	14.73,	2.12,	1.16,	2.40,	4.16,	13.29,	8.31,	12.53,	0.27,	0.04,	13.84,	14.96,	1640,	1670
70,	8488,	8444,	8872,	8277,	7584,	8294,	7893,	8599,	8298,	8195,	8245,	8332,	8640,	8198,	0.01,	0.10,	14.73,	2.12,	1.16,	2.40,	4.16,	13.29,	8.31,	12.53,	0.27,	0.04,	13.84,	14.96,	1640,	1671
71,	8511,	8464,	8892,	8307,	7585,	8307,	7900,	8609,	8315,	8213,	8268,	8351,	8660,	8213,	0.01,	0.10,	14.73,	2.12,	1.16,	2.40,	4.16,	13.27,	8.31,	12.53,	0.27,	0.04,	13.84,	14.96,	1637,	1674
72,	8515,	8489,	8907,	8328,	7583,	8312,	7898,	8598,	8314,	8221,	8284,	8366,	8673,	8224,	0.01,	0.10,	14.73,	2.12,	1.16,	2.40,	4.16,	13.27,	8.33,	12.53,	0.27,	0.04,	13.84,	14.96,	1638,	1675
73,	8505,	8480,	8908,	8315,	7581,	8301,	7888,	8580,	8293,	8222,	8279,	8362,	8668,	8222,	0.01,	0.10,	14.73,	2.12,	1.16,	2.40,	4.16,	13.27,	8.33,	12.50,	0.27,	0.04,	13.84,	14.96,	1637,	1675
74,	8501,	8464,	8903,	8310,	7579,	8292,	7879,	8576,	8288,	8234,	8272,	8360,	8666,	8210,	0.01,	0.10,	14.73,	2.12,	1.16,	2.40,	4.16,	13.27,	8.33,	12.50,	0.28,	0.04,	13.84,	14.96,	1637,	1672
75,	8504,	8471,	8902,	8324,	7579,	8294,	7882,	8595,	8306,	8233,	8282,	8365,	8670,	8211,	0.01,	0.10,	14.73,	2.12,	1.16,	2.40,	4.16,	13.27,	8.33,	12.50,	0.28,	0.03,	13.84,	14.96,	1637,	1670
76,	8507,	8481,	8907,	8330,	7592,	8302,	7897,	8615,	8314,	8220,	8294,	8370,	8681,	8222,	0.01,	0.10,	14.73,	2.12,	1.16,	2.40,	4.16,	13.27,	8.33,	12.50,	0.28,	0.03,	13.82,	14.96,	1637,	1666
77,	8511,	8483,	8911,	8326,	7602,	8304,	7911,	8617,	8303,	8223,	8296,	8378,	8693,	8228,	0.01,	0.10,	14.73,	2.12,	1.16,	2.40,	4.16,	13.27,	8.33,	12.50,	0.28,	0.03,	13.82,	14.98,	1635,	1662
78,	8512,	8482,	8913,	8328,	7594,	8298,	7909,	8609,	8298,	8229,	8293,	8383,	8694,	8231,	0.01,	0.10,	14.73,	2.12,	1.16,	2.40,	4.16,	13.27,	8.33,	12.50,	0.25,	0.03,	13.82,	14.98,	1636,	1657
79,	8509,	8484,	8909,	8347,	7588,	8300,	7908,	8610,	8315,	8246,	8302,	8385,	8698,	8230,	0.01,	0.10,	14.73,	2.12,	1.16,	2.40,	4.16,	13.27,	8.33,	12.50,	0.25,	0.00,	13.82,	14.98,	1635,	1651
80,	8508,	8484,	8900,	8354,	7591,	8309,	7919,	8617,	8326,	8265,	8308,	8388,	8709,	8233,	0.01,	0.10,	14.73,	2.12,	1.16,	2.40,	4.16,	13.27,	8.33,	12.50,	0.25,	0.00,	13.85,	14.98,	1635,	1650
81,	8503,	8479,	8887,	8335,	7583,	8309,	7923,	8619,	8314,	8247,	8278,	8374,	8698,	8233,	0.01,	0.10,	14.73,	2.12,	1.16,	2.40,	4.16,	13.27,	8.33,	12.50,	0.25,	0.00,	13.85,	14.98,	1635,	1649
82,	8486,	8471,	8867,	8319,	7576,	8304,	7920,	8610,	8300,	8224,	8248,	8353,	8674,	8212,	0.01,	0.10,	14.73,	2.12,	1.16,	2.40,	4.16,	13.27,	8.33,	12.50,	0.24,	0.00,	13.85,	14.98,	1633,	1654
83,	8470,	8461,	8862,	8323,	7592,	8300,	7907,	8587,	8293,	8230,	8266,	8352,	8678,	8195,	0.01,	0.10,	14.73,	2.12,	1.16,	2.40,	4.16,	13.27,	8.33,	12.50,	0.24,	0.04,	13.85,	14.98,	1633,	1657
84,	8475,	8464,	8872,	8328,	7602,	8291,	7891,	8583,	8300,	8244,	8310,	8375,	8702,	8208,	0.01,	0.10,	14.73,	2.12,	1.16,	2.40,	4.16,	13.27,	8.33,	12.50,	0.24,	0.04,	13.85,	14.98,	1631,	1661
85,	8486,	8474,	8887,	8320,	7576,	8293,	7901,	8614,	8318,	8259,	8342,	8400,	8731,	8234,	0.01,	0.10,	14.73,	2.12,	1.16,	2.40,	4.16,	13.27,	8.33,	12.50,	0.24,	0.04,	13.85,	14.95,	1630,	1662
86,	8496,	8476,	8901,	8321,	7566,	8302,	7925,	8626,	8326,	8290,	8363,	8419,	8769,	8248,	0.01,	0.10,	14.73,	2.12,	1.16,	2.40,	4.16,	13.27,	8.33,	12.50,	0.25,	0.04,	13.85,	14.95,	1628,	1661
87,	8508,	8479,	8899,	8331,	7578,	8303,	7927,	8615,	8331,	8308,	8372,	8424,	8782,	8249,	0.01,	0.10,	14.73,	2.12,	1.16,	2.40,	4.16,	13.27,	8.33,	12.50,	0.25,	0.04,	13.85,	14.95,	1627,	1662
88,	8508,	8476,	8887,	8322,	7558,	8302,	7914,	8632,	8349,	8295,	8358,	8412,	8771,	8247,	0.01,	0.10,	14.73,	2.12,	1.16,	2.40,	4.16,	13.27,	8.33,	12.50,	0.25,	0.04,	13.84,	14.95,	1625,	1658
89,	8486,	8461,	8872,	8303,	7552,	8301,	7915,	8643,	8345,	8269,	8338,	8392,	8766,	8239,	0.01,	0.10,	14.73,	2.12,	1.16,	2.40,	4.16,	13.27,	8.33,	12.50,	0.25,	0.04,	13.84,	14.98,	1626,	1655
90,	8469,	8451,	8854,	8295,	7573,	8303,	7923,	8631,	8334,	8268,	8337,	8383,	8768,	8228,	0.01,	0.10,	14.73,	2.12,	1.16,	2.40,	4.16,	13.27,	8.33,	12.50,	0.28,	0.04,	13.84,	14.98,	1625,	1651
91,	8474,	8454,	8856,	8297,	7549,	8301,	7921,	8635,	8348,	8292,	8336,	8383,	8769,	8224,	0.01,	0.10,	14.73,	2.12,	1.16,	2.40,	4.16,	13.27,	8.33,	12.50,	0.28,	0.01,	13.84,	14.98,	1625,	1650
92,	8481,	8463,	8872,	8309,	7533,	8299,	7919,	8647,	8354,	8294,	8325,	8386,	8784,	8230,	0.01,	0.10,	14.73,	2.12,	1.16,	2.40,	4.16,	13.27,	8.33,	12.50,	0.28,	0.01,	13.85,	14.98,	1627,	1648
93,	8475,	8465,	8876,	8314,	7568,	8303,	7922,	8630,	8333,	8262,	8329,	8392,	8792,	8234,	0.01,	0.10,	14.73,	2.12,	1.16,	2.40,	4.16,	13.27,	8.33,	12.50,	0.28,	0.01,	13.85,	14.96,	1627,	1651
94,	8473,	8458,	8869,	8305,	7566,	8303,	7919,	8604,	8324,	8234,	8342,	8387,	8781,	8228,	0.01,	0.10,	14.73,	2.12,	1.16,	2.40,	4.16,	13.27,	8.33,	12.50,	0.28,	0.01,	13.85,	14.96,	1630,	1651
95,	8477,	8464,	8869,	8313,	7547,	8293,	7919,	8615,	8340,	8245,	8340,	8383,	8791,	8227,	0.01,	0.10,	14.73,	2.12,	1.16,	2.40,	4.16,	13.27,	8.33,	12.50,	0.28,	0.04,	13.85,	14.96,	1631,	1651
96,	8468,	8471,	8858,	8317,	7556,	8291,	7926,	8637,	8349,	8266,	8332,	8385,	8812,	8231,	0.01,	0.10,	14.73,	2.12,	1.16,	2.40,	4.16,	13.27,	8.33,	12.50,	0.28,	0.04,	13.84,	14.96,	1631,	1651
97,	8463,	8465,	8848,	8300,	7556,	8305,	7942,	8651,	8355,	8268,	8328,	8380,	8818,	8232,	0.01,	0.10,	14.73,	2.12,	1.16,	2.40,	4.16,	13.27,	8.33,	12.50,	0.28,	0.04,	13.84,	14.96,	1632,	1650
98,	8474,	8470,	8852,	8306,	7563,	8312,	7952,	8668,	8367,	8275,	8331,	8376,	8822,	8241,	0.01,	0.10,	14.73,	2.12,	1.16,	2.40,	4.16,	13.27,	8.33,	12.50,	0.24,	0.04,	13.84,	14.96,	1632,	1651
99,	8473,	8475,	8850,	8321,	7573,	8311,	7940,	8662,	8363,	8280,	8332,	8379,	8820,	8248,	0.01,	0.10,	14.73,	2.12,	1.16,	2.40,	4.16,	13.27,	8.33,	12.50,	0.24,	0.00,	13.84,	14.96,	1633,	1651
100,	8464,	8471,	8849,	8311,	7561,	8322,	7926,	8640,	8354,	8264,	8328,	8385,	8815,	8237,	0.01,	0.10,	14.73,	2.12,	1.16,	2.40,	4.16,	13.27,	8.33,	12.50,	0.24,	0.00,	13.84,	14.96,	1634,	1654
101,	8467,	8474,	8853,	8310,	7553,	8320,	7937,	8637,	8358,	8250,	8323,	8392,	8826,	8230,	0.01,	0.10,	14.73,	2.12,	1.16,	2.40,	4.16,	13.27,	8.33,	12.50,	0.24,	0.00,	13.84,	14.95,	1634,	1654
102,	8472,	8475,	8852,	8316,	7565,	8301,	7940,	8643,	8360,	8252,	8327,	8392,	8832,	8237,	0.01,	0.10,	14.73,	2.12,	1.16,	2.40,	4.16,	13.27,	8.33,	12.50,	0.24,	0.00,	13.84,	14.95,	1634,	1655
103,	8466,	8471,	8851,	8314,	7579,	8301,	7919,	8628,	8351,	8255,	8328,	8385,	8825,	8241,	0.01,	0.10,	14.73,	2.12,	1.16,	2.40,	4.16,	13.27,	8.33,	12.50,	0.24,	0.04,	13.84,	14.95,	1635,	1653
104,	8461,	8468,	8849,	8306,	7581,	8302,	7905,	8612,	8336,	8254,	8321,	8390,	8829,	8239,	0.01,	0.10,	14.73,	2.12,	1.16,	2.40,	4.16,	13.27,	8.33,	12.50,	0.24,	0.04,	13.82,	14.95,	1635,	1653
105,	8472,	8461,	8850,	8301,	7566,	8291,	7918,	8633,	8345,	8268,	8328,	8397,	8854,	8253,	0.01,	0.10,	14.73,	2.12,	1.16,	2.40,	4.16,	13.27,	8.33,	12.50,	0.24,	0.04,	13.82,	14.96,	1637,	1654
106,	8484,	8463,	8851,	8307,	7541,	8289,	7929,	8658,	8372,	8279,	8337,	8396,	8874,	8265,	0.01,	0.10,	14.73,	2.12,	1.16,	2.40,	4.16,	13.27,	8.33,	12.50,	0.25,	0.04,	13.82,	14.96,	1636,	1656
107,	8477,	8478,	8853,	8321,	7540,	8296,	7920,	8650,	8366,	8261,	8325,	8398,	8864,	8257,	0.01,	0.10,	14.73,	2.12,	1.16,	2.40,	4.16,	13.27,	8.33,	12.50,	0.25,	0.00,	13.82,	14.96,	1636,	1658
108,	8472,	8483,	8856,	8331,	7562,	8303,	7917,	8637,	8345,	8241,	8321,	8403,	8854,	8245,	0.01,	0.10,	14.73,	2.12,	1.16,	2.40,	4.16,	13.27,	8.33,	12.50,	0.25,	0.00,	13.82,	14.96,	1638,	1658
109,	8477,	8477,	8856,	8328,	7563,	8303,	7929,	8643,	8356,	8256,	8341,	8404,	8872,	8243,	0.01,	0.10,	14.73,	2.12,	1.16,	2.40,	4.16,	13.27,	8.33,	12.50,	0.25,	0.00,	13.82,	14.95,	1638,	1659
110,	8481,	8483,	8854,	8330,	7557,	8302,	7945,	8650,	8373,	8273,	8354,	8405,	8890,	8256,	0.01,	0.10,	14.73,	2.12,	1.16,	2.40,	4.16,	13.27,	8.33,	12.50,	0.25,	0.00,	13.82,	14.95,	1639,	1661
111,	8472,	8483,	8856,	8335,	7564,	8308,	7947,	8653,	8364,	8266,	8341,	8405,	8881,	8260,	0.01,	0.10,	14.73,	2.12,	1.16,	2.40,	4.16,	13.27,	8.33,	12.50,	0.25,	0.04,	13.82,	14.95,	1639,	1663
112,	8457,	8469,	8847,	8322,	7563,	8304,	7934,	8645,	8344,	8269,	8320,	8393,	8875,	8242,	0.01,	0.10,	14.73,	2.12,	1.16,	2.40,	4.16,	13.27,	8.33,	12.50,	0.25,	0.04,	13.84,	14.95,	1640,	1664
113,	8463,	8465,	8824,	8308,	7560,	8293,	7929,	8632,	8345,	8272,	8321,	8385,	8885,	8233,	0.01,	0.10,	14.73,	2.12,	1.16,	2.40,	4.16,	13.27,	8.33,	12.50,	0.25,	0.04,	13.84,	14.95,	1642,	1668
114,	8469,	8473,	8827,	8308,	7555,	8293,	7929,	8635,	8354,	8247,	8328,	8388,	8879,	8240,	0.01,	0.10,	14.73,	2.12,	1.16,	2.40,	4.16,	13.27,	8.33,	12.50,	0.25,	0.04,	13.84,	14.95,	1644,	1672
115,	8460,	8477,	8847,	8318,	7553,	8305,	7932,	8638,	8349,	8246,	8330,	8396,	8879,	8238,	0.01,	0.10,	14.73,	2.12,	1.16,	2.40,	4.16,	13.27,	8.33,	12.50,	0.25,	0.00,	13.84,	14.95,	1645,	1674
116,	8458,	8474,	8838,	8325,	7568,	8303,	7942,	8630,	8336,	8268,	8341,	8399,	8888,	8239,	0.01,	0.10,	14.73,	2.12,	1.16,	2.40,	4.16,	13.27,	8.33,	12.50,	0.25,	0.00,	13.84,	14.95,	1646,	1674
117,	8456,	8467,	8817,	8314,	7573,	8283,	7932,	8621,	8327,	8247,	8332,	8391,	8877,	8241,	0.01,	0.10,	14.73,	2.12,	1.16,	2.40,	4.16,	13.27,	8.33,	12.50,	0.25,	0.00,	13.84,	14.93,	1647,	1675
118,	8445,	8470,	8820,	8311,	7557,	8278,	7920,	8619,	8330,	8234,	8311,	8384,	8871,	8231,	0.01,	0.10,	14.73,	2.12,	1.16,	2.40,	4.16,	13.27,	8.33,	12.50,	0.24,	0.00,	13.84,	14.93,	1648,	1676
119,	8443,	8473,	8822,	8317,	7536,	8292,	7928,	8617,	8333,	8262,	8316,	8384,	8897,	8227,	0.01,	0.10,	14.73,	2.12,	1.16,	2.40,	4.16,	13.27,	8.33,	12.50,	0.24,	0.00,	13.84,	14.93,	1649,	1677
120,	8444,	8460,	8816,	8306,	7533,	8295,	7931,	8615,	8327,	8254,	8307,	8384,	8907,	8227,	0.01,	0.10,	14.73,	2.12,	1.16,	2.40,	4.16,	13.27,	8.33,	12.50,	0.24,	0.00,	13.85,	14.93,	1649,	1676
121,	8433,	8454,	8814,	8303,	7537,	8286,	7928,	8621,	8327,	8234,	8274,	8379,	8899,	8226,	0.01,	0.10,	14.73,	2.12,	1.16,	2.40,	4.16,	13.27,	8.33,	12.50,	0.24,	0.00,	13.85,	14.93,	1648,	1675
122,	8431,	8466,	8818,	8311,	7533,	8280,	7926,	8621,	8329,	8250,	8256,	8378,	8905,	8228,	0.01,	0.10,	14.73,	2.12,	1.16,	2.40,	4.16,	13.27,	8.33,	12.50,	0.27,	0.00,	13.85,	14.93,	1649,	1671
123,	8438,	8470,	8817,	8302,	7547,	8279,	7921,	8611,	8317,	8242,	8255,	8382,	8905,	8229,	0.01,	0.10,	14.73,	2.12,	1.16,	2.40,	4.16,	13.27,	8.33,	12.50,	0.27,	0.01,	13.85,	14.93,	1646,	1670
124,	8437,	8462,	8814,	8303,	7565,	8283,	7926,	8614,	8310,	8221,	8252,	8383,	8899,	8229,	0.01,	0.10,	14.73,	2.12,	1.16,	2.40,	4.16,	13.27,	8.33,	12.50,	0.27,	0.01,	13.84,	14.93,	1647,	1668
125,	8448,	8470,	8826,	8332,	7559,	8297,	7939,	8638,	8333,	8253,	8271,	8399,	8928,	8242,	0.01,	0.10,	14.73,	2.12,	1.16,	2.40,	4.16,	13.27,	8.33,	12.50,	0.27,	0.01,	13.84,	14.98,	1644,	1668
126,	8461,	8496,	8842,	8343,	7546,	8295,	7938,	8644,	8351,	8289,	8296,	8420,	8956,	8257,	0.01,	0.10,	14.73,	2.12,	1.16,	2.40,	4.16,	13.27,	8.33,	12.50,	0.27,	0.01,	13.84,	14.98,	1643,	1667
127,	8451,	8495,	8845,	8326,	7550,	8274,	7918,	8616,	8327,	8264,	8289,	8408,	8944,	8250,	0.01,	0.10,	14.73,	2.12,	1.16,	2.40,	4.16,	13.27,	8.33,	12.50,	0.27,	0.03,	13.84,	14.98,	1642,	1667
0,	8441,	8480,	8838,	8334,	7545,	8290,	7924,	8625,	8325,	8263,	8301,	8400,	8973,	8239,	0.00,	0.10,	14.73,	2.12,	1.16,	2.40,	4.16,	13.27,	8.33,	12.50,	0.27,	0.03,	13.84,	14.98,	1638,	1664
1,	8447,	8492,	8846,	8340,	7536,	8297,	7925,	8624,	8335,	8262,	8310,	8409,	8974,	8248,	0.00,	0.07,	14.73,	2.12,	1.16,	2.40,	4.16,	13.27,	8.33,	12.50,	0.27,	0.03,	13.84,	14.98,	1637,	1663
2,	8440,	8496,	8838,	8344,	7547,	8287,	7915,	8620,	8337,	8271,	8301,	8408,	8974,	8251,	0.00,	0.07,	14.74,	2.12,	1.16,	2.40,	4.16,	13.27,	8.33,	12.50,	0.27,	0.03,	13.84,	14.98,	1637,	1665
3,	8439,	8489,	8822,	8336,	7555,	8275,	7913,	8623,	8332,	8279,	8288,	8407,	8991,	8246,	0.00,	0.07,	14.74,	2.09,	1.16,	2.40,	4.16,	13.27,	8.33,	12.50,	0.27,	0.03,	13.84,	14.98,	1635,	1668
4,	8441,	8485,	8818,	8328,	7548,	8275,	7919,	8623,	8331,	8257,	8291,	8403,	8994,	8239,	0.00,	0.07,	14.74,	2.09,	1.17,	2.40,	4.16,	13.27,	8.33,	12.50,	0.27,	0.03,	13.84,	14.98,	1636,	1667
5,	8435,	8485,	8822,	8332,	7540,	8274,	7910,	8612,	8326,	8228,	8301,	8401,	8981,	8236,	0.00,	0.07,	14.74,	2.09,	1.17,	2.40,	4.16,	13.27,	8.33,	12.50,	0.27,	0.03,	13.84,	14.98,	1634,	1666
6,	8429,	8472,	8818,	8327,	7535,	8261,	7894,	8588,	8298,	8203,	8287,	8395,	8971,	8230,	0.00,	0.07,	14.74,	2.09,	1.17,	2.40,	4.18,	13.27,	8.33,	12.50,	0.27,	0.03,	13.84,	14.98,	1634,	1665
7,	8430,	8461,	8816,	8313,	7532,	8256,	7893,	8587,	8287,	8195,	8266,	8383,	8969,	8221,	0.00,	0.07,	14.74,	2.09,	1.17,	2.40,	4.18,	13.29,	8.33,	12.50,	0.27,	0.03,	13.84,	14.98,	1633,	1663
8,	8434,	8462,	8820,	8317,	7543,	8264,	7901,	8612,	8310,	8219,	8274,	8388,	8982,	8218,	0.00,	0.07,	14.74,	2.09,	1.17,	2.40,	4.18,	13.29,	8.31,	12.50,	0.27,	0.03,	13.84,	14.98,	1633,	1666
9,	8435,	8469,	8821,	8335,	7566,	8282,	7915,	8618,	8319,	8234,	8292,	8403,	9001,	8224,	0.00,	0.07,	14.74,	2.09,	1.17,	2.40,	4.18,	13.29,	8.31,	12.55,	0.27,	0.03,	13.84,	14.98,	1632,	1666
10,	8435,	8474,	8823,	8335,	7554,	8282,	7919,	8608,	8307,	8217,	8291,	8403,	9007,	8234,	0.00,	0.07,	14.74,	2.09,	1.17,	2.40,	4.18,	13.29,	8.31,	12.55,	0.28,	0.03,	13.84,	14.98,	1631,	1668
11,	8438,	8467,	8833,	8328,	7524,	8261,	7905,	8610,	8311,	8206,	8288,	8405,	9008,	8241,	0.00,	0.07,	14.74,	2.09,	1.17,	2.40,	4.18,	13.29,	8.31,	12.55,	0.28,	0.01,	13.84,	14.98,	1632,	1667
12,	8442,	8458,	8834,	8330,	7531,	8260,	7900,	8618,	8327,	8223,	8293,	8414,	9017,	8244,	0.00,	0.07,	14.74,	2.09,	1.17,	2.40,	4.18,	13.29,	8.31,	12.55,	0.28,	0.01,	13.81,	14.98,	1632,	1668
13,	8435,	8456,	8820,	8322,	7545,	8272,	7904,	8614,	8327,	8237,	8294,	8404,	9022,	8234,	0.00,	0.07,	14.74,	2.09,	1.17,	2.40,	4.18,	13.29,	8.31,	12.55,	0.28,	0.01,	13.81,	14.93,	1632,	1668
14,	8422,	8459,	8813,	8318,	7546,	8268,	7903,	8606,	8320,	8240,	8301,	8393,	9028,	8228,	0.00,	0.07,	14.74,	2.09,	1.17,	2.40,	4.18,	13.29,	8.31,	12.55,	0.28,	0.01,	13.81,	14.93,	1631,	1670
15,	8422,	8456,	8818,	8325,	7556,	8266,	7903,	8603,	8324,	8250,	8307,	8400,	9039,	8232,	0.00,	0.07,	14.74,	2.09,	1.17,	2.40,	4.18,	13.29,	8.31,	12.55,	0.28,	0.04,	13.81,	14.93,	1633,	1671
16,	8430,	8448,	8820,	8316,	7553,	8273,	7905,	8592,	8321,	8234,	8289,	8401,	9040,	8225,	0.00,	0.07,	14.74,	2.09,	1.17,	2.40,	4.18,	13.29,	8.31,	12.55,	0.28,	0.04,	13.81,	14.93,	1631,	1672
17,	8428,	8447,	8814,	8311,	7543,	8271,	7898,	8587,	8305,	8203,	8269,	8388,	9027,	8215,	0.00,	0.07,	14.74,	2.09,	1.17,	2.40,	4.18,	13.29,	8.31,	12.55,	0.28,	0.04,	13.81,	14.93,	1632,	1671
18,	8425,	8448,	8812,	8315,	7551,	8267,	7895,	8594,	8301,	8208,	8266,	8383,	9027,	8218,	0.00,	0.07,	14.74,	2.09,	1.17,	2.40,	4.18,	13.29,	8.31,	12.55,	0.28,	0.04,	13.81,	14.93,	1632,	1670
19,	8432,	8453,	8813,	8319,	7568,	8278,	7911,	8609,	8322,	8238,	8273,	8395,	9049,	8233,	0.00,	0.07,	14.74,	2.09,	1.17,	2.40,	4.18,	13.29,	8.31,	12.55,	0.28,	0.04,	13.81,	14.93,	1632,	1670
20,	8436,	8452,	8815,	8328,	7572,	8279,	7925,	8617,	8338,	8244,	8285,	8404,	9063,	8231,	0.00,	0.07,	14.74,	2.09,	1.17,	2.40,	4.18,	13.29,	8.31,	12.55,	0.28,	0.04,	13.81,	14.93,	1631,	1666
21,	8427,	8440,	8816,	8318,	7574,	8275,	7915,	8593,	8316,	8235,	8278,	8392,	9057,	8214,	0.00,	0.07,	14.74,	2.09,	1.17,	2.40,	4.18,	13.29,	8.31,	12.55,	0.28,	0.04,	13.81,	14.93,	1631,	1666
22,	8424,	8429,	8808,	8296,	7577,	8286,	7907,	8577,	8299,	8251,	8270,	8383,	9062,	8222,	0.00,	0.07,	14.74,	2.09,	1.17,	2.40,	4.18,	13.29,	8.31,	12.55,	0.28,	0.04,	13.81,	14.93,	1632,	1666
23,	8430,	8434,	8807,	8303,	7566,	8288,	7920,	8598,	8314,	8251,	8283,	8392,	9076,	8238,	0.00,	0.07,	14.74,	2.09,	1.17,	2.40,	4.18,	13.29,	8.31,	12.55,	0.28,	0.04,	13.81,	14.93,	1631,	1666
24,	8433,	8455,	8817,	8322,	7579,	8271,	7921,	8612,	8332,	8234,	8297,	8397,	9079,	8230,	0.00,	0.07,	14.74,	2.09,	1.17,	2.40,	4.18,	13.29,	8.31,	12.55,	0.28,	0.04,	13.81,	14.93,	1631,	1664
25,	8440,	8466,	8825,	8328,	7589,	8269,	7913,	8607,	8326,	8236,	8304,	8398,	9090,	8233,	0.00,	0.07,	14.74,	2.09,	1.17,	2.40,	4.18,	13.29,	8.31,	12.55,	0.28,	0.04,	13.81,	14.93,	1631,	1664
26,	8439,	8461,	8826,	8329,	7563,	8274,	7915,	8610,	8321,	8246,	8306,	8400,	9102,	8241,	0.00,	0.07,	14.74,	2.09,	1.17,	2.40,	4.18,	13.29,	8.31,	12.55,	0.28,	0.04,	13.81,	14.93,	1631,	1664
27,	8421,	8456,	8811,	8313,	7561,	8267,	7920,	8617,	8335,	8249,	8298,	8392,	9099,	8222,	0.00,	0.07,	14.74,	2.09,	1.17,	2.40,	4.18,	13.29,	8.31,	12.55,	0.28,	0.04,	13.81,	14.93,	1631,	1664
28,	8411,	8446,	8796,	8298,	7579,	8263,	7911,	8599,	8326,	8245,	8289,	8384,	9100,	8209,	0.00,	0.07,	14.74,	2.09,	1.17,	2.40,	4.18,	13.29,	8.31,	12.55,	0.28,	0.04,	13.81,	14.93,	1632,	1664
29,	8414,	8439,	8803,	8310,	7567,	8271,	7904,	8579,	8299,	8240,	8292,	8386,	9104,	8216,	0.00,	0.07,	14.74,	2.09,	1.17,	2.40,	4.18,	13.29,	8.31,	12.55,	0.28,	0.04,	13.81,	14.93,	1633,	1662
30,	8415,	8450,	8818,	8322,	7558,	8278,	7912,	8586,	8303,	8231,	8291,	8384,	9099,	8220,	0.00,	0.07,	14.74,	2.09,	1.17,	2.40,	4.18,	13.29,	8.31,	12.55,	0.28,	0.04,	13.81,	14.93,	1632,	1664
31,	8409,	8447,	8818,	8316,	7572,	8273,	7912,	8596,	8313,	8216,	8272,	8375,	9098,	8211,	0.00,	0.07,	14.74,	2.09,	1.17,	2.40,	4.18,	13.29,	8.31,	12.55,	0.28,	0.04,	13.81,	14.93,	1635,	1662
32,	8408,	8432,	8802,	8312,	7573,	8262,	7903,	8593,	8300,	8209,	8265,	8369,	9105,	8205,	0.00,	0.07,	14.74,	2.09,	1.17,	2.40,	4.18,	13.29,	8.31,	12.55,	0.28,	0.04,	13.81,	14.93,	1634,	1664
33,	8404,	8434,	8802,	8306,	7559,	8258,	7900,	8590,	8301,	8213,	8274,	8367,	9101,	8206,	0.00,	0.07,	14.74,	2.09,	1.17,	2.40,	4.18,	13.29,	8.31,	12.55,	0.28,	0.04,	13.81,	14.93,	1637,	1663
34,	8398,	8434,	8812,	8297,	7556,	8263,	7902,	8593,	8322,	8215,	8278,	8363,	9105,	8202,	0.00,	0.07,	14.74,	2.09,	1.17,	2.40,	4.18,	13.29,	8.31,	12.55,	0.28,	0.04,	13.81,	14.93,	1637,	1663
35,	8401,	8423,	8802,	8295,	7565,	8260,	7896,	8586,	8325,	8214,	8274,	8363,	9121,	8202,	0.00,	0.07,	14.74,	2.09,	1.17,	2.40,	4.18,	13.29,	8.31,	12.55,	0.28,	0.04,	13.81,	14.93,	1639,	1663
36,	8406,	8426,	8794,	8291,	7568,	8242,	7881,	8569,	8306,	8211,	8266,	8366,	9122,	8205,	0.00,	0.07,	14.74,	2.09,	1.17,	2.40,	4.18,	13.29,	8.31,	12.55,	0.28,	0.04,	13.81,	14.93,	1641,	1661
37,	8401,	8440,	8807,	8298,	7562,	8238,	7881,	8572,	8303,	8207,	8266,	8368,	9120,	8208,	0.00,	0.07,	14.74,	2.09,	1.17,	2.40,	4.18,	13.29,	8.31,	12.55,	0.28,	0.04,	13.81,	14.93,	1642,	1663
38,	8398,	8436,	8806,	8307,	7544,	8246,	7884,	8578,	8306,	8193,	8271,	8366,	9128,	8203,	0.00,	0.07,	14.74,	2.09,	1.17,	2.40,	4.18,	13.29,	8.31,	12.55,	0.28,	0.04,	13.81,	14.93,	1643,	1663
39,	8398,	8419,	8787,	8298,	7540,	8240,	7868,	8564,	8293,	8185,	8269,	8361,	9132,	8197,	0.00,	0.07,	14.74,	2.09,	1.17,	2.40,	4.18,	13.29,	8.31,	12.55,	0.28,	0.04,	13.81,	14.93,	1644,	1666
40,	8393,	8420,	8787,	8293,	7561,	8232,	7861,	8557,	8287,	8200,	8272,	8358,	9135,	8197,	0.00,	0.07,	14.74,	2.09,	1.17,	2.40,	4.18,	13.29,	8.31,	12.55,	0.28,	0.04,	13.81,	14.93,	1643,	1668
41,	8386,	8421,	8795,	8290,	7542,	8234,	7866,	8561,	8288,	8203,	8276,	8355,	9136,	8189,	0.00,	0.07,	14.74,	2.09,	1.17,	2.40,	4.18,	13.29,	8.31,	12.55,	0.28,	0.04,	13.81,	14.93,	1644,	1668
42,	8379,	8402,	8784,	8276,	7513,	8231,	7862,	8559,	8282,	8178,	8260,	8343,	9118,	8175,	0.00,	0.07,	14.74,	2.09,	1.17,	2.40,	4.18,	13.29,	8.31,	12.55,	0.28,	0.04,	13.81,	14.93,	1643,	1669
43,	8369,	8389,	8766,	8267,	7528,	8235,	7865,	8552,	8277,	8167,	8231,	8329,	9103,	8171,	0.00,	0.07,	14.74,	2.09,	1.17,	2.40,	4.18,	13.29,	8.31,	12.55,	0.28,	0.04,	13.81,	14.93,	1643,	1671
44,	8364,	8392,	8763,	8270,	7545,	8245,	7876,	8548,	8282,	8176,	8230,	8331,	9119,	8171,	0.00,	0.07,	14.74,	2.09,	1.17,	2.40,	4.18,	13.29,	8.31,	12.55,	0.28,	0.04,	13.81,	14.93,	1643,	1672
45,	8371,	8401,	8779,	8277,	7543,	8242,	7879,	8561,	8298,	8179,	8259,	8347,	9146,	8176,	0.00,	0.07,	14.74,	2.09,	1.17,	2.40,	4.18,	13.29,	8.31,	12.55,	0.28,	0.04,	13.81,	14.93,	1643,	1672
46,	8383,	8406,	8791,	8280,	7545,	8228,	7869,	8568,	8303,	8186,	8272,	8358,	9160,	8187,	0.00,	0.07,	14.74,	2.09,	1.17,	2.40,	4.18,	13.29,	8.31,	12.55,	0.28,	0.04,	13.81,	14.93,	1642,	1671
47,	8386,	8403,	8790,	8278,	7543,	8229,	7864,	8550,	8286,	8205,	8270,	8359,	9172,	8190,	0.00,	0.07,	14.74,	2.09,	1.17,	2.40,	4.18,	13.29,	8.31,	12.55,	0.28,	0.04,	13.81,	14.93,	1643,	1670
48,	8384,	8401,	8794,	8282,	7527,	8241,	7867,	8546,	8280,	8210,	8272,	8356,	9175,	8185,	0.00,	0.07,	14.74,	2.09,	1.17,	2.40,	4.18,	13.29,	8.31,	12.55,	0.28,	0.04,	13.81,	14.93,	1642,	1668
49,	8378,	8401,	8790,	8277,	7527,	8240,	7868,	8559,	8289,	8188,	8269,	8347,	9162,	8177,	0.00,	0.07,	14.74,	2.09,	1.17,	2.40,	4.18,	13.29,	8.31,	12.55,	0.28,	0.04,	13.81,	14.93,	1642,	1669
50,	8380,	8398,	8783,	8273,	7549,	8241,	7873,	8566,	8302,	8183,	8276,	8352,	9176,	8180,	0.00,	0.07,	14.74,	2.09,	1.17,	2.40,	4.18,	13.29,	8.31,	12.55,	0.28,	0.04,	13.81,	14.93,	1643,	1669
51,	8386,	8396,	8803,	8283,	7546,	8245,	7872,	8559,	8298,	8202,	8285,	8366,	9203,	8190,	0.00,	0.07,	14.74,	2.09,	1.17,	2.40,	4.18,	13.29,	8.31,	12.55,	0.28,	0.04,	13.81,	14.93,	1642,	1670
52,	8383,	8403,	8814,	8285,	7535,	8236,	7858,	8540,	8281,	8194,	8271,	8362,	9188,	8182,	0.00,	0.07,	14.74,	2.09,	1.17,	2.40,	4.18,	13.29,	8.31,	12.55,	0.28,	0.04,	13.81,	14.93,	1643,	1667
53,	8378,	8407,	8796,	8282,	7548,	8228,	7853,	8528,	8284,	8174,	8267,	8353,	9175,	8176,	0.00,	0.07,	14.74,	2.09,	1.17,	2.40,	4.18,	13.29,	8.31,	12.55,	0.28,	0.04,	13.81,	14.93,	1643,	1666
54,	8373,	8396,	8792,	8285,	7554,	8241,	7859,	8532,	8289,	8170,	8271,	8346,	9193,	8178,	0.00,	0.07,	14.74,	2.09,	1.17,	2.40,	4.18,	13.29,	8.31,	12.55,	0.28,	0.04,	13.81,	14.93,	1644,	1666
55,	8376,	8390,	8813,	8298,	7536,	8256,	7864,	8541,	8289,	8182,	8272,	8350,	9205,	8181,	0.00,	0.07,	14.74,	2.09,	1.17,	2.40,	4.18,	13.29,	8.31,	12.55,	0.28,	0.04,	13.81,	14.93,	1644,	1666
56,	8393,	8400,	8825,	8304,	7522,	8253,	7869,	8552,	8307,	8200,	8287,	8368,	9217,	8197,	0.00,	0.07,	14.74,	2.09,	1.17,	2.40,	4.18,	13.29,	8.31,	12.55,	0.28,	0.04,	13.81,	14.93,	1644,	1667
57,	8398,	8410,	8824,	8299,	7537,	8244,	7869,	8566,	8320,	8211,	8297,	8373,	9238,	8208,	0.00,	0.07,	14.74,	2.09,	1.17,	2.40,	4.18,	13.29,	8.31,	12.55,	0.28,	0.04,	13.81,	14.93,	1644,	1667
58,	8384,	8405,	8814,	8291,	7549,	8241,	7867,	8561,	8307,	8209,	8278,	8359,	9235,	8187,	0.00,	0.07,	14.74,	2.09,	1.17,	2.40,	4.18,	13.29,	8.31,	12.55,	0.28,	0.04,	13.81,	14.93,	1643,	1669
59,	8375,	8398,	8801,	8286,	7541,	8241,	7867,	8548,	8293,	8202,	8266,	8351,	9221,	8168,	0.00,	0.07,	14.74,	2.09,	1.17,	2.40,	4.18,	13.29,	8.31,	12.55,	0.28,	0.04,	13.81,	14.93,	1642,	1668
60,	8383,	8411,	8810,	8296,	7541,	8246,	7863,	8554,	8306,	8214,	8284,	8361,	9231,	8192,	0.00,	0.07,	14.74,	2.09,	1.17,	2.40,	4.18,	13.29,	8.31,	12.55,	0.28,	0.04,	13.81,	14.93,	1642,	1670
61,	8390,	8417,	8822,	8299,	7539,	8247,	7859,	8562,	8310,	8220,	8297,	8371,	9253,	8211,	0.00,	0.07,	14.74,	2.09,	1.17,	2.40,	4.18,	13.29,	8.31,	12.55,	0.28,	0.04,	13.81,	14.93,	1641,	1667
62,	8388,	8406,	8815,	8291,	7524,	8247,	7862,	8547,	8299,	8198,	8293,	8365,	9257,	8197,	0.00,	0.07,	14.74,	2.09,	1.17,	2.40,	4.18,	13.29,	8.31,	12.55,	0.28,	0.04,	13.81,	14.93,	1639,	1667
63,	8383,	8407,	8814,	8299,	7529,	8249,	7864,	8526,	8288,	8177,	8283,	8355,	9245,	8184,	0.00,	0.07,	14.74,	2.09,	1.17,	2.40,	4.18,	13.29,	8.31,	12.55,	0.28,	0.04,	13.81,	14.93,	1641,	1665
64,	8378,	8415,	8818,	8304,	7546,	8246,	7858,	8521,	8284,	8180,	8270,	8351,	9239,	8180,	0.03,	0.07,	14.74,	2.09,	1.17,	2.40,	4.18,	13.29,	8.31,	12.55,	0.28,	0.04,	13.81,	14.93,	1638,	1664
65,	8379,	8417,	8815,	8294,	7540,	8254,	7857,	8532,	8295,	8188,	8271,	8356,	9252,	8180,	0.03,	0.07,	14.74,	2.09,	1.17,	2.40,	4.18,	13.29,	8.31,	12.55,	0.28,	0.04,	13.81,	14.93,	1639,	1666
66,	8381,	8409,	8813,	8285,	7532,	8260,	7858,	8538,	8298,	8180,	8272,	8359,	9261,	8178,	0.03,	0.07,	14.73,	2.09,	1.17,	2.40,	4.18,	13.29,	8.31,	12.55,	0.28,	0.04,	13.81,	14.93,	1638,	1664
67,	8377,	8397,	8814,	8290,	7543,	8256,	7859,	8539,	8295,	8176,	8266,	8353,	9260,	8179,	0.03,	0.07,	14.73,	2.12,	1.17,	2.40,	4.18,	13.29,	8.31,	12.55,	0.28,	0.04,	13.81,	14.93,	1637,	1663
68,	8384,	8403,	8818,	8301,	7545,	8260,	7876,	8561,	8309,	8197,	8274,	8352,	9270,	8187,	0.03,	0.07,	14.73,	2.12,	1.01,	2.40,	4.18,	13.29,	8.31,	12.55,	0.28,	0.04,	13.81,	14.93,	1637,	1662
69,	8395,	8419,	8824,	8298,	7524,	8259,	7876,	8566,	8307,	8203,	8283,	8360,	9287,	8188,	0.03,	0.07,	14.73,	2.12,	1.01,	2.37,	4.18,	13.29,	8.31,	12.55,	0.28,	0.04,	13.81,	14.93,	1638,	1663
70,	8390,	8418,	8822,	8292,	7526,	8253,	7854,	8539,	8286,	8177,	8274,	8365,	9295,	8178,	0.03,	0.07,	14.73,	2.12,	1.01,	2.37,	4.18,	13.29,	8.31,	12.55,	0.28,	0.04,	13.81,	14.93,	1637,	1662
71,	8384,	8411,	8819,	8293,	7540,	8257,	7856,	8528,	8281,	8167,	8258,	8352,	9292,	8170,	0.03,	0.07,	14.73,	2.12,	1.01,	2.37,	4.18,	13.27,	8.31,	12.55,	0.28,	0.04,	13.81,	14.93,	1637,	1664
72,	8387,	8405,	8813,	8288,	7535,	8252,	7861,	8528,	8285,	8170,	8252,	8334,	9284,	8170,	0.03,	0.07,	14.73,	2.12,	1.01,	2.37,	4.18,	13.27,	8.31,	12.55,	0.28,	0.04,	13.81,	14.93,	1639,	1663
73,	8382,	8399,	8810,	8286,	7534,	8243,	7855,	8531,	8288,	8160,	8263,	8340,	9280,	8174,	0.03,	0.07,	14.73,	2.12,	1.01,	2.37,	4.18,	13.27,	8.31,	12.55,	0.28,	0.04,	13.81,	14.93,	1638,	1661
74,	8374,	8395,	8813,	8293,	7528,	8243,	7847,	8541,	8297,	8163,	8268,	8345,	9295,	8177,	0.03,	0.07,	14.73,	2.12,	1.01,	2.37,	4.18,	13.27,	8.31,	12.55,	0.28,	0.04,	13.81,	14.93,	1640,	1659
75,	8385,	8403,	8818,	8299,	7521,	8248,	7851,	8541,	8308,	8181,	8268,	8345,	9319,	8191,	0.03,	0.07,	14.73,	2.12,	1.01,	2.37,	4.18,	13.27,	8.31,	12.55,	0.28,	0.04,	13.81,	14.93,	1639,	1657
76,	8404,	8411,	8823,	8300,	7530,	8265,	7864,	8540,	8315,	8179,	8278,	8361,	9325,	8199,	0.03,	0.07,	14.73,	2.12,	1.01,	2.37,	4.18,	13.27,	8.31,	12.55,	0.28,	0.04,	13.39,	14.93,	1640,	1659
77,	8400,	8404,	8821,	8295,	7541,	8277,	7867,	8545,	8307,	8167,	8285,	8363,	9320,	8190,	0.03,	0.07,	14.73,	2.12,	1.01,	2.37,	4.18,	13.27,	8.31,	12.55,	0.28,	0.04,	13.39,	14.98,	1640,	1661
78,	8388,	8407,	8813,	8299,	7545,	8265,	7859,	8536,	8289,	8170,	8278,	8348,	9321,	8187,	0.03,	0.07,	14.73,	2.12,	1.01,	2.37,	4.18,	13.27,	8.31,	12.55,	0.28,	0.04,	13.39,	14.98,	1640,	1663
79,	8395,	8416,	8817,	8309,	7538,	8259,	7861,	8521,	8284,	8168,	8267,	8355,	9330,	8198,	0.03,	0.07,	14.73,	2.12,	1.01,	2.37,	4.18,	13.27,	8.31,	12.55,	0.28,	0.01,	13.39,	14.98,	1641,	1663
80,	8409,	8409,	8826,	8311,	7543,	8270,	7874,	8537,	8304,	8168,	8270,	8368,	9338,	8206,	0.03,	0.07,	14.73,	2.12,	1.01,	2.37,	4.18,	13.27,	8.31,	12.55,	0.28,	0.01,	13.42,	14.98,	1641,	1663
81,	8403,	8396,	8822,	8307,	7546,	8269,	7862,	8548,	8310,	8182,	8286,	8365,	9342,	8196,	0.03,	0.07,	14.73,	2.12,	1.01,	2.37,	4.18,	13.27,	8.31,	12.55,	0.28,	0.01,	13.42,	14.96,	1640,	1662
82,	8396,	8402,	8816,	8308,	7526,	8259,	7844,	8528,	8292,	8178,	8289,	8363,	9337,	8185,	0.03,	0.07,	14.73,	2.12,	1.01,	2.37,	4.18,	13.27,	8.31,	12.55,	0.24,	0.01,	13.42,	14.96,	1641,	1662
83,	8401,	8419,	8820,	8303,	7519,	8263,	7854,	8519,	8293,	8168,	8281,	8361,	9337,	8190,	0.03,	0.07,	14.73,	2.12,	1.01,	2.37,	4.18,	13.27,	8.31,	12.55,	0.24,	0.03,	13.42,	14.96,	1642,	1662
84,	8405,	8409,	8823,	8294,	7532,	8269,	7854,	8525,	8305,	8185,	8287,	8358,	9351,	8193,	0.03,	0.07,	14.73,	2.12,	1.01,	2.37,	4.18,	13.27,	8.31,	12.55,	0.24,	0.03,	13.42,	14.96,	1640,	1663
85,	8403,	8396,	8822,	8298,	7537,	8270,	7847,	8535,	8306,	8201,	8295,	8365,	9362,	8187,	0.03,	0.07,	14.73,	2.12,	1.01,	2.37,	4.18,	13.27,	8.31,	12.55,	0.24,	0.03,	13.42,	14.98,	1641,	1664
86,	8395,	8407,	8816,	8302,	7526,	8263,	7858,	8543,	8298,	8186,	8285,	8359,	9355,	8188,	0.03,	0.07,	14.73,	2.12,	1.01,	2.37,	4.18,	13.27,	8.31,	12.55,	0.27,	0.03,	13.42,	14.98,	1640,	1662
87,	8379,	8404,	8813,	8292,	7511,	8246,	7850,	8530,	8281,	8164,	8274,	8341,	9342,	8182,	0.03,	0.07,	14.73,	2.12,	1.01,	2.37,	4.18,	13.27,	8.31,	12.55,	0.27,	0.03,	13.42,	14.98,	1640,	1663
88,	8378,	8387,	8815,	8295,	7515,	8251,	7833,	8523,	8287,	8170,	8290,	8346,	9353,	8170,	0.03,	0.07,	14.73,	2.12,	1.01,	2.37,	4.18,	13.27,	8.31,	12.55,	0.27,	0.03,	13.41,	14.98,	1640,	1661
89,	8393,	8398,	8820,	8303,	7536,	8273,	7844,	8541,	8311,	8177,	8303,	8357,	9368,	8179,	0.03,	0.07,	14.73,	2.12,	1.01,	2.37,	4.18,	13.27,	8.31,	12.55,	0.27,	0.03,	13.41,	14.93,	1639,	1663
90,	8394,	8418,	8819,	8293,	7550,	8276,	7855,	8551,	8309,	8177,	8294,	8346,	9360,	8188,	0.03,	0.07,	14.73,	2.12,	1.01,	2.37,	4.18,	13.27,	8.31,	12.55,	0.28,	0.03,	13.41,	14.93,	1640,	1661
91,	8394,	8413,	8820,	8295,	7534,	8277,	7852,	8556,	8311,	8195,	8291,	8342,	9368,	8181,	0.03,	0.07,	14.73,	2.12,	1.01,	2.37,	4.18,	13.27,	8.31,	12.55,	0.28,	0.00,	13.41,	14.93,	1639,	1660
92,	8404,	8405,	8824,	8298,	7526,	8293,	7868,	8564,	8328,	8206,	8289,	8347,	9386,	8180,	0.03,	0.07,	14.73,	2.12,	1.01,	2.37,	4.18,	13.27,	8.31,	12.55,	0.28,	0.00,	13.39,	14.93,	1640,	1659
93,	8406,	8406,	8820,	8280,	7550,	8303,	7892,	8568,	8321,	8200,	8285,	8341,	9372,	8189,	0.03,	0.07,	14.73,	2.12,	1.01,	2.37,	4.18,	13.27,	8.31,	12.55,	0.28,	0.00,	13.39,	14.93,	1639,	1657
94,	8406,	8407,	8819,	8279,	7554,	8293,	7885,	8562,	8305,	8190,	8298,	8337,	9358,	8196,	0.03,	0.07,	14.73,	2.12,	1.01,	2.37,	4.18,	13.27,	8.31,	12.55,	0.25,	0.00,	13.39,	14.93,	1640,	1657
95,	8404,	8403,	8822,	8292,	7528,	8278,	7863,	8550,	8312,	8178,	8308,	8336,	9371,	8188,	0.03,	0.07,	14.73,	2.12,	1.01,	2.37,	4.18,	13.27,	8.31,	12.55,	0.25,	0.04,	13.39,	14.93,	1639,	1660
96,	8391,	8409,	8820,	8287,	7516,	8272,	7861,	8551,	8326,	8186,	8308,	8330,	9376,	8175,	0.03,	0.07,	14.73,	2.12,	1.01,	2.37,	4.18,	13.27,	8.31,	12.55,	0.25,	0.04,	13.41,	14.93,	1640,	1662
97,	8388,	8423,	8817,	8287,	7520,	8281,	7867,	8565,	8331,	8207,	8320,	8329,	9376,	8178,	0.03,	0.07,	14.73,	2.12,	1.01,	2.37,	4.18,	13.27,	8.31,	12.55,	0.25,	0.04,	13.41,	14.98,	1640,	1661
98,	8403,	8416,	8816,	8302,	7515,	8283,	7866,	8568,	8323,	8210,	8336,	8343,	9389,	8196,	0.03,	0.07,	14.73,	2.12,	1.01,	2.37,	4.18,	13.27,	8.31,	12.55,	0.27,	0.04,	13.41,	14.98,	1640,	1658
99,	8407,	8398,	8830,	8297,	7510,	8280,	7866,	8558,	8313,	8200,	8333,	8350,	9390,	8198,	0.03,	0.07,	14.73,	2.12,	1.01,	2.37,	4.18,	13.27,	8.31,	12.55,	0.27,	0.03,	13.41,	14.98,	1640,	1658
100,	8399,	8401,	8840,	8283,	7511,	8274,	7859,	8551,	8317,	8192,	8321,	8336,	9378,	8182,	0.03,	0.07,	14.73,	2.12,	1.01,	2.37,	4.18,	13.27,	8.31,	12.55,	0.27,	0.03,	13.44,	14.98,	1640,	1658
101,	8402,	8412,	8825,	8290,	7512,	8269,	7856,	8548,	8324,	8183,	8318,	8331,	9386,	8178,	0.03,	0.07,	14.73,	2.12,	1.01,	2.37,	4.18,	13.27,	8.31,	12.55,	0.27,	0.03,	13.44,	14.93,	1641,	1660
102,	8414,	8410,	8826,	8297,	7509,	8269,	7861,	8551,	8316,	8189,	8326,	8341,	9409,	8188,	0.03,	0.07,	14.73,	2.12,	1.01,	2.37,	4.18,	13.27,	8.31,	12.55,	0.25,	0.03,	13.44,	14.93,	1642,	1660
103,	8409,	8411,	8846,	8292,	7511,	8268,	7860,	8564,	8325,	8202,	8337,	8343,	9414,	8194,	0.03,	0.07,	14.73,	2.12,	1.01,	2.37,	4.18,	13.27,	8.31,	12.55,	0.25,	0.00,	13.44,	14.93,	1640,	1661
104,	8403,	8414,	8848,	8298,	7527,	8276,	7859,	8564,	8340,	8197,	8341,	8340,	9405,	8195,	0.03,	0.07,	14.73,	2.12,	1.01,	2.37,	4.18,	13.27,	8.31,	12.55,	0.25,	0.00,	13.44,	14.93,	1642,	1661
105,	8417,	8414,	8843,	8307,	7543,	8293,	7861,	8545,	8324,	8196,	8331,	8349,	9409,	8201,	0.03,	0.07,	14.73,	2.12,	1.01,	2.37,	4.18,	13.27,	8.31,	12.55,	0.25,	0.00,	13.44,	14.95,	1641,	1661
106,	8431,	8427,	8857,	8311,	7530,	8302,	7866,	8542,	8321,	8210,	8339,	8364,	9424,	8210,	0.03,	0.07,	14.73,	2.12,	1.01,	2.37,	4.18,	13.27,	8.31,	12.55,	0.27,	0.00,	13.44,	14.95,	1641,	1659
107,	8430,	8435,	8861,	8315,	7497,	8283,	7858,	8552,	8339,	8209,	8359,	8367,	9432,	8210,	0.03,	0.07,	14.73,	2.12,	1.01,	2.37,	4.18,	13.27,	8.31,	12.55,	0.27,	0.03,	13.44,	14.95,	1640,	1655
108,	8426,	8423,	8851,	8313,	7507,	8272,	7850,	8549,	8332,	8201,	8348,	8363,	9429,	8198,	0.03,	0.07,	14.73,	2.12,	1.01,	2.37,	4.18,	13.27,	8.31,	12.55,	0.27,	0.03,	13.42,	14.95,	1639,	1656
109,	8413,	8415,	8845,	8307,	7525,	8285,	7855,	8546,	8322,	8203,	8323,	8354,	9419,	8191,	0.03,	0.07,	14.73,	2.12,	1.01,	2.37,	4.18,	13.27,	8.31,	12.55,	0.27,	0.03,	13.42,	14.98,	1640,	1654
110,	8398,	8407,	8840,	8297,	7491,	8277,	7840,	8539,	8323,	8186,	8308,	8341,	9409,	8180,	0.03,	0.07,	14.73,	2.12,	1.01,	2.37,	4.18,	13.27,	8.31,	12.55,	0.24,	0.03,	13.42,	14.98,	1639,	1655
111,	8401,	8396,	8838,	8290,	7474,	8258,	7819,	8511,	8299,	8162,	8297,	8343,	9412,	8165,	0.03,	0.07,	14.73,	2.12,	1.01,	2.37,	4.18,	13.27,	8.31,	12.55,	0.24,	0.04,	13.42,	14.98,	1639,	1655
112,	8411,	8399,	8846,	8294,	7499,	8260,	7825,	8497,	8278,	8174,	8298,	8361,	9430,	8176,	0.03,	0.07,	14.73,	2.12,	1.01,	2.37,	4.18,	13.27,	8.31,	12.55,	0.24,	0.04,	13.41,	14.98,	1639,	1655
113,	8412,	8408,	8854,	8303,	7506,	8277,	7842,	8514,	8301,	8192,	8315,	8367,	9439,	8197,	0.03,	0.07,	14.73,	2.12,	1.01,	2.37,	4.18,	13.27,	8.31,	12.55,	0.24,	0.04,	13.41,	14.96,	1639,	1655
114,	8415,	8407,	8853,	8294,	7502,	8283,	7849,	8533,	8325,	8187,	8324,	8363,	9437,	8191,	0.03,	0.07,	14.73,	2.12,	1.01,	2.37,	4.18,	13.27,	8.31,	12.55,	0.25,	0.04,	13.41,	14.96,	1639,	1657
115,	8418,	8405,	8850,	8283,	7516,	8277,	7845,	8529,	8316,	8182,	8318,	8367,	9438,	8178,	0.03,	0.07,	14.73,	2.12,	1.01,	2.37,	4.18,	13.27,	8.31,	12.55,	0.25,	0.01,	13.41,	14.96,	1641,	1656
116,	8418,	8423,	8854,	8297,	7515,	8275,	7835,	8515,	8306,	8182,	8314,	8370,	9441,	8194,	0.03,	0.07,	14.73,	2.12,	1.01,	2.37,	4.18,	13.27,	8.31,	12.55,	0.25,	0.01,	13.44,	14.96,	1640,	1655
117,	8417,	8425,	8857,	8305,	7492,	8274,	7821,	8505,	8300,	8172,	8301,	8363,	9433,	8202,	0.03,	0.07,	14.73,	2.12,	1.01,	2.37,	4.18,	13.27,	8.31,	12.55,	0.25,	0.01,	13.44,	14.95,	1641,	1657
118,	8409,	8400,	8848,	8282,	7492,	8267,	7818,	8504,	8287,	8166,	8280,	8348,	9421,	8177,	0.03,	0.07,	14.73,	2.12,	1.01,	2.37,	4.18,	13.27,	8.31,	12.55,	0.27,	0.01,	13.44,	14.95,	1642,	1656
119,	8407,	8403,	8851,	8275,	7512,	8268,	7833,	8521,	8299,	8184,	8291,	8352,	9425,	8170,	0.03,	0.07,	14.73,	2.12,	1.01,	2.37,	4.18,	13.27,	8.31,	12.55,	0.27,	0.01,	13.44,	14.95,	1642,	1658
120,	8421,	8427,	8876,	8296,	7513,	8281,	7848,	8531,	8316,	8191,	8308,	8371,	9439,	8198,	0.03,	0.07,	14.73,	2.12,	1.01,	2.37,	4.18,	13.27,	8.31,	12.55,	0.27,	0.01,	13.39,	14.95,	1643,	1658
121,	8430,	8428,	8884,	8308,	7504,	8295,	7849,	8525,	8315,	8179,	8303,	8378,	9448,	8208,	0.03,	0.07,	14.73,	2.12,	1.01,	2.37,	4.18,	13.27,	8.31,	12.55,	0.27,	0.01,	13.39,	14.95,	1642,	1659
122,	8420,	8411,	8862,	8298,	7511,	8290,	7842,	8520,	8307,	8171,	8302,	8370,	9444,	8183,	0.03,	0.07,	14.73,	2.12,	1.01,	2.37,	4.18,	13.27,	8.31,	12.55,	0.27,	0.01,	13.39,	14.95,	1643,	1657
123,	8402,	8391,	8849,	8283,	7522,	8276,	7836,	8513,	8295,	8167,	8290,	8357,	9440,	8161,	0.03,	0.07,	14.73,	2.12,	1.01,	2.37,	4.18,	13.27,	8.31,	12.55,	0.27,	0.00,	13.39,	14.95,	1643,	1656
124,	8394,	8387,	8849,	8283,	7522,	8276,	7829,	8503,	8293,	8176,	8270,	8349,	9442,	8161,	0.03,	0.07,	14.73,	2.12,	1.01,	2.37,	4.18,	13.27,	8.31,	12.55,	0.27,	0.00,	13.41,	14.95,	1643,	1656
125,	8394,	8413,	8857,	8290,	7508,	8279,	7830,	8510,	8310,	8183,	8277,	8349,	9442,	8166,	0.03,	0.07,	14.73,	2.12,	1.01,	2.37,	4.18,	13.27,	8.31,	12.55,	0.27,	0.00,	13.41,	14.96,	1642,	1657
126,	8407,	8436,	8873,	8300,	7503,	8275,	7843,	8533,	8326,	8180,	8305,	8357,	9445,	8170,	0.03,	0.07,	14.73,	2.12,	1.01,	2.37,	4.18,	13.27,	8.31,	12.55,	0.28,	0.00,	13.41,	14.96,	1643,	1657
127,	8416,	8412,	8877,	8304,	7521,	8274,	7846,	8530,	8314,	8176,	8325,	8365,	9450,	8174,	0.03,	0.07,	14.73,	2.12,	1.01,	2.37,	4.18,	13.27,	8.31,	12.55,	0.28,	0.03,	13.41,	14.96,	1641,	1656
0,	8403,	8409,	8876,	8300,	7502,	8277,	7828,	8514,	8304,	8163,	8342,	8362,	9464,	8171,	0.00,	0.07,	14.73,	2.12,	1.01,	2.37,	4.18,	13.27,	8.31,	12.55,	0.28,	0.03,	13.41,	14.96,	1641,	1655
1,	8423,	8426,	8889,	8303,	7512,	8280,	7845,	8546,	8324,	8176,	8355,	8366,	9474,	8183,	0.00,	0.07,	14.73,	2.12,	1.01,	2.37,	4.18,	13.27,	8.31,	12.55,	0.28,	0.03,	13.41,	14.96,	1639,	1656
2,	8425,	8422,	8883,	8302,	7541,	8293,	7853,	8534,	8324,	8184,	8361,	8360,	9476,	8184,	0.00,	0.07,	14.71,	2.12,	1.01,	2.37,	4.18,	13.27,	8.31,	12.55,	0.28,	0.03,	13.41,	14.96,	1639,	1656
3,	8425,	8421,	8883,	8304,	7529,	8291,	7847,	8516,	8321,	8170,	8360,	8356,	9477,	8183,	0.00,	0.07,	14.71,	2.12,	1.01,	2.37,	4.18,	13.27,	8.31,	12.55,	0.28,	0.03,	13.41,	14.96,	1637,	1656
4,	8429,	8427,	8897,	8300,	7509,	8277,	7835,	8518,	8321,	8152,	8359,	8361,	9475,	8184,	0.00,	0.07,	14.71,	2.12,	1.23,	2.37,	4.18,	13.27,	8.31,	12.55,	0.28,	0.03,	13.41,	14.96,	1638,	1658
5,	8428,	8425,	8907,	8307,	7530,	8285,	7832,	8525,	8327,	8162,	8361,	8370,	9476,	8189,	0.00,	0.07,	14.71,	2.12,	1.23,	2.37,	4.18,	13.27,	8.31,	12.55,	0.28,	0.03,	13.41,	14.96,	1637,	1656
6,	8440,	8423,	8918,	8320,	7522,	8291,	7841,	8539,	8343,	8185,	8370,	8381,	9499,	8206,	0.00,	0.07,	14.71,	2.12,	1.23,	2.37,	4.16,	13.27,	8.31,	12.55,	0.28,	0.03,	13.41,	14.96,	1638,	1656
7,	8449,	8427,	8917,	8307,	7494,	8276,	7848,	8547,	8343,	8181,	8375,	8379,	9513,	8209,	0.00,	0.07,	14.71,	2.12,	1.23,	2.37,	4.16,	13.27,	8.31,	12.55,	0.28,	0.03,	13.41,	14.96,	1639,	1653
8,	8424,	8429,	8893,	8282,	7517,	8271,	7840,	8520,	8309,	8152,	8357,	8350,	9485,	8179,	0.00,	0.07,	14.71,	2.12,	1.23,	2.37,	4.16,	13.27,	8.24,	12.55,	0.28,	0.03,	13.41,	14.96,	1639,	1653
9,	8407,	8423,	8889,	8296,	7547,	8284,	7831,	8495,	8289,	8144,	8349,	8340,	9477,	8165,	0.00,	0.07,	14.71,	2.12,	1.23,	2.37,	4.16,	13.27,	8.24,	12.55,	0.28,	0.03,	13.41,	14.96,	1639,	1653
10,	8430,	8421,	8912,	8314,	7533,	8298,	7846,	8523,	8322,	8167,	8373,	8365,	9515,	8191,	0.00,	0.07,	14.71,	2.12,	1.23,	2.37,	4.16,	13.27,	8.24,	12.55,	0.27,	0.03,	13.41,	14.96,	1639,	1656
11,	8435,	8405,	8908,	8285,	7485,	8288,	7849,	8541,	8335,	8181,	8372,	8356,	9518,	8194,	0.00,	0.07,	14.71,	2.12,	1.23,	2.37,	4.16,	13.27,	8.24,	12.55,	0.27,	0.01,	13.41,	14.96,	1639,	1654
12,	8418,	8390,	8895,	8262,	7466,	8261,	7826,	8515,	8311,	8161,	8348,	8327,	9493,	8170,	0.00,	0.07,	14.71,	2.12,	1.23,	2.37,	4.16,	13.27,	8.24,	12.55,	0.27,	0.01,	13.36,	14.96,	1637,	1654
13,	8427,	8428,	8916,	8300,	7505,	8269,	7826,	8513,	8320,	8155,	8374,	8346,	9515,	8179,	0.00,	0.07,	14.71,	2.12,	1.23,	2.37,	4.16,	13.27,	8.24,	12.55,	0.27,	0.01,	13.36,	14.96,	1639,	1651
14,	8439,	8446,	8926,	8326,	7525,	8291,	7844,	8536,	8335,	8187,	8397,	8369,	9544,	8199,	0.00,	0.07,	14.71,	2.12,	1.23,	2.37,	4.16,	13.27,	8.24,	12.55,	0.24,	0.01,	13.36,	14.96,	1637,	1650
15,	8420,	8413,	8906,	8293,	7494,	8269,	7831,	8519,	8307,	8195,	8370,	8347,	9525,	8181,	0.00,	0.07,	14.71,	2.12,	1.23,	2.37,	4.16,	13.27,	8.24,	12.55,	0.24,	0.04,	13.36,	14.96,	1638,	1652
16,	8413,	8405,	8904,	8275,	7483,	8255,	7806,	8495,	8294,	8165,	8353,	8333,	9502,	8168,	0.00,	0.07,	14.71,	2.12,	1.23,	2.37,	4.16,	13.27,	8.24,	12.55,	0.24,	0.04,	13.36,	14.96,	1637,	1652
17,	8432,	8425,	8916,	8291,	7500,	8274,	7810,	8501,	8308,	8158,	8359,	8346,	9503,	8184,	0.00,	0.07,	14.71,	2.12,	1.23,	2.37,	4.16,	13.27,	8.24,	12.55,	0.24,	0.04,	13.36,	14.96,	1638,	1652
18,	8442,	8434,	8925,	8296,	7503,	8284,	7827,	8508,	8307,	8174,	8367,	8355,	9519,	8194,	0.00,	0.07,	14.71,	2.12,	1.23,	2.37,	4.16,	13.27,	8.24,	12.55,	0.24,	0.04,	13.36,	14.96,	1638,	1650
19,	8435,	8436,	8927,	8290,	7503,	8282,	7830,	8507,	8311,	8166,	8374,	8354,	9531,	8186,	0.00,	0.07,	14.71,	2.12,	1.23,	2.37,	4.16,	13.27,	8.24,	12.55,	0.24,	0.04,	13.36,	14.96,	1638,	1652
20,	8429,	8431,	8921,	8292,	7513,	8286,	7823,	8514,	8327,	8157,	8378,	8352,	9524,	8181,	0.00,	0.07,	14.71,	2.12,	1.23,	2.37,	4.16,	13.27,	8.24,	12.55,	0.24,	0.04,	13.36,	14.96,	1638,	1652
21,	8427,	8420,	8922,	8302,	7509,	8282,	7816,	8508,	8315,	8170,	8375,	8354,	9524,	8184,	0.00,	0.07,	14.71,	2.12,	1.23,	2.37,	4.16,	13.27,	8.24,	12.55,	0.24,	0.04,	13.36,	14.96,	1637,	1653
22,	8430,	8430,	8937,	8306,	7503,	8277,	7812,	8494,	8304,	8184,	8380,	8361,	9540,	8183,	0.00,	0.07,	14.71,	2.12,	1.23,	2.37,	4.16,	13.27,	8.24,	12.55,	0.24,	0.04,	13.36,	14.96,	1637,	1652
23,	8437,	8447,	8949,	8314,	7517,	8285,	7823,	8509,	8324,	8182,	8391,	8362,	9537,	8181,	0.00,	0.07,	14.71,	2.12,	1.23,	2.37,	4.16,	13.27,	8.24,	12.55,	0.24,	0.04,	13.36,	14.96,	1637,	1653
24,	8431,	8435,	8942,	8311,	7501,	8293,	7837,	8526,	8327,	8158,	8372,	8344,	9516,	8176,	0.00,	0.07,	14.71,	2.12,	1.23,	2.37,	4.16,	13.27,	8.24,	12.55,	0.24,	0.04,	13.36,	14.96,	1636,	1652
25,	8419,	8412,	8925,	8280,	7471,	8293,	7832,	8519,	8307,	8134,	8340,	8326,	9509,	8165,	0.00,	0.07,	14.71,	2.12,	1.23,	2.37,	4.16,	13.27,	8.24,	12.55,	0.24,	0.04,	13.36,	14.96,	1636,	1651
26,	8419,	8412,	8923,	8266,	7493,	8285,	7821,	8514,	8304,	8145,	8338,	8327,	9517,	8166,	0.00,	0.07,	14.71,	2.12,	1.23,	2.37,	4.16,	13.27,	8.24,	12.55,	0.24,	0.04,	13.36,	14.96,	1636,	1650
27,	8432,	8434,	8936,	8300,	7519,	8276,	7820,	8516,	8314,	8169,	8366,	8342,	9525,	8181,	0.00,	0.07,	14.71,	2.12,	1.23,	2.37,	4.16,	13.27,	8.24,	12.55,	0.24,	0.04,	13.36,	14.96,	1636,	1651
28,	8437,	8438,	8948,	8313,	7487,	8270,	7819,	8500,	8310,	8165,	8382,	8343,	9521,	8187,	0.00,	0.07,	14.71,	2.12,	1.23,	2.37,	4.16,	13.27,	8.24,	12.55,	0.24,	0.04,	13.36,	14.96,	1635,	1651
29,	8427,	8429,	8943,	8286,	7466,	8268,	7814,	8482,	8296,	8149,	8371,	8328,	9510,	8174,	0.00,	0.07,	14.71,	2.12,	1.23,	2.37,	4.16,	13.27,	8.24,	12.55,	0.24,	0.04,	13.36,	14.96,	1636,	1653
30,	8416,	8433,	8924,	8282,	7488,	8269,	7815,	8488,	8294,	8130,	8349,	8319,	9505,	8162,	0.00,	0.07,	14.71,	2.12,	1.23,	2.37,	4.16,	13.27,	8.24,	12.55,	0.24,	0.04,	13.36,	14.96,	1636,	1652
31,	8407,	8429,	8913,	8290,	7485,	8269,	7820,	8502,	8301,	8123,	8339,	8314,	9510,	8157,	0.00,	0.07,	14.71,	2.12,	1.23,	2.37,	4.16,	13.27,	8.24,	12.55,	0.24,	0.04,	13.36,	14.96,	1635,	1653
32,	8401,	8411,	8921,	8283,	7485,	8269,	7816,	8506,	8307,	8137,	8348,	8306,	9516,	8153,	0.00,	0.07,	14.71,	2.12,	1.23,	2.37,	4.16,	13.27,	8.24,	12.55,	0.24,	0.04,	13.36,	14.96,	1637,	1652
33,	8406,	8410,	8926,	8290,	7506,	8280,	7816,	8513,	8322,	8156,	8362,	8314,	9520,	8160,	0.00,	0.07,	14.71,	2.12,	1.23,	2.37,	4.16,	13.27,	8.24,	12.55,	0.24,	0.04,	13.36,	14.96,	1636,	1650
34,	8410,	8420,	8917,	8295,	7491,	8284,	7818,	8526,	8331,	8165,	8357,	8319,	9524,	8169,	0.00,	0.07,	14.71,	2.12,	1.23,	2.37,	4.16,	13.27,	8.24,	12.55,	0.24,	0.04,	13.36,	14.96,	1637,	1651
35,	8407,	8404,	8909,	8274,	7481,	8273,	7814,	8527,	8321,	8160,	8352,	8314,	9528,	8167,	0.00,	0.07,	14.71,	2.12,	1.23,	2.37,	4.16,	13.27,	8.24,	12.55,	0.24,	0.04,	13.36,	14.96,	1637,	1649
36,	8405,	8395,	8917,	8270,	7486,	8275,	7821,	8529,	8315,	8153,	8356,	8319,	9521,	8166,	0.00,	0.07,	14.71,	2.12,	1.23,	2.37,	4.16,	13.27,	8.24,	12.55,	0.24,	0.04,	13.36,	14.96,	1638,	1649
37,	8403,	8415,	8930,	8278,	7455,	8279,	7826,	8527,	8314,	8145,	8346,	8315,	9500,	8165,	0.00,	0.07,	14.71,	2.12,	1.23,	2.37,	4.16,	13.27,	8.24,	12.55,	0.24,	0.04,	13.36,	14.96,	1638,	1650
38,	8407,	8427,	8925,	8271,	7453,	8265,	7807,	8504,	8297,	8127,	8330,	8298,	9486,	8157,	0.00,	0.07,	14.71,	2.12,	1.23,	2.37,	4.16,	13.27,	8.24,	12.55,	0.24,	0.04,	13.36,	14.96,	1640,	1650
39,	8403,	8412,	8911,	8266,	7481,	8248,	7784,	8480,	8270,	8102,	8321,	8296,	9476,	8147,	0.00,	0.07,	14.71,	2.12,	1.23,	2.37,	4.16,	13.27,	8.24,	12.55,	0.24,	0.04,	13.36,	14.96,	1641,	1649
40,	8401,	8397,	8916,	8275,	7476,	8255,	7792,	8482,	8272,	8106,	8318,	8304,	9472,	8151,	0.00,	0.07,	14.71,	2.12,	1.23,	2.37,	4.16,	13.27,	8.24,	12.55,	0.24,	0.04,	13.36,	14.96,	1641,	1650
41,	8420,	8412,	8931,	8287,	7475,	8279,	7815,	8497,	8299,	8135,	8328,	8307,	9490,	8164,	0.00,	0.07,	14.71,	2.12,	1.23,	2.37,	4.16,	13.27,	8.24,	12.55,	0.24,	0.04,	13.36,	14.96,	1643,	1650
42,	8421,	8425,	8936,	8281,	7489,	8276,	7812,	8506,	8308,	8147,	8349,	8310,	9506,	8170,	0.00,	0.07,	14.71,	2.12,	1.23,	2.37,	4.16,	13.27,	8.24,	12.55,	0.24,	0.04,	13.36,	14.96,	1642,	1652
43,	8401,	8418,	8939,	8276,	7474,	8264,	7804,	8529,	8322,	8162,	8363,	8319,	9510,	8170,	0.00,	0.07,	14.71,	2.12,	1.23,	2.37,	4.16,	13.27,	8.24,	12.55,	0.24,	0.04,	13.36,	14.96,	1643,	1652
44,	8412,	8417,	8944,	8284,	7452,	8272,	7813,	8544,	8340,	8168,	8360,	8323,	9510,	8179,	0.00,	0.07,	14.71,	2.12,	1.23,	2.37,	4.16,	13.27,	8.24,	12.55,	0.24,	0.04,	13.36,	14.96,	1642,	1653
45,	8429,	8419,	8943,	8285,	7456,	8277,	7814,	8519,	8326,	8153,	8354,	8317,	9505,	8179,	0.00,	0.07,	14.71,	2.12,	1.23,	2.37,	4.16,	13.27,	8.24,	12.55,	0.24,	0.04,	13.36,	14.96,	1642,	1655
46,	8415,	8409,	8940,	8281,	7462,	8266,	7807,	8518,	8323,	8157,	8356,	8316,	9502,	8180,	0.00,	0.07,	14.71,	2.12,	1.23,	2.37,	4.16,	13.27,	8.24,	12.55,	0.24,	0.04,	13.36,	14.96,	1642,	1653
47,	8415,	8409,	8937,	8271,	7462,	8261,	7806,	8535,	8325,	8154,	8348,	8312,	9509,	8185,	0.00,	0.07,	14.71,	2.12,	1.23,	2.37,	4.16,	13.27,	8.24,	12.55,	0.24,	0.04,	13.36,	14.96,	1642,	1654
48,	8428,	8421,	8937,	8270,	7479,	8268,	7812,	8515,	8304,	8129,	8333,	8301,	9506,	8175,	0.00,	0.07,	14.71,	2.12,	1.23,	2.37,	4.16,	13.27,	8.24,	12.55,	0.24,	0.04,	13.36,	14.96,	1642,	1653
49,	8425,	8421,	8938,	8283,	7493,	8282,	7825,	8506,	8302,	8134,	8336,	8304,	9495,	8169,	0.00,	0.07,	14.71,	2.12,	1.23,	2.37,	4.16,	13.27,	8.24,	12.55,	0.24,	0.04,	13.36,	14.96,	1641,	1655
50,	8413,	8413,	8936,	8288,	7482,	8289,	7834,	8526,	8321,	8159,	8346,	8308,	9502,	8174,	0.00,	0.07,	14.71,	2.12,	1.23,	2.37,	4.16,	13.27,	8.24,	12.55,	0.24,	0.04,	13.36,	14.96,	1641,	1655
51,	8408,	8413,	8939,	8278,	7478,	8283,	7828,	8524,	8318,	8157,	8350,	8302,	9511,	8178,	0.00,	0.07,	14.71,	2.12,	1.23,	2.37,	4.16,	13.27,	8.24,	12.55,	0.24,	0.04,	13.36,	14.96,	1641,	1655
52,	8421,	8411,	8942,	8270,	7479,	8277,	7821,	8517,	8315,	8149,	8355,	8300,	9503,	8173,	0.00,	0.07,	14.71,	2.12,	1.23,	2.37,	4.16,	13.27,	8.24,	12.55,	0.24,	0.04,	13.36,	14.96,	1642,	1653
53,	8423,	8411,	8937,	8269,	7465,	8279,	7825,	8533,	8333,	8158,	8350,	8301,	9504,	8169,	0.00,	0.07,	14.71,	2.12,	1.23,	2.37,	4.16,	13.27,	8.24,	12.55,	0.24,	0.04,	13.36,	14.96,	1640,	1653
54,	8409,	8413,	8935,	8269,	7455,	8276,	7820,	8528,	8329,	8163,	8341,	8302,	9517,	8174,	0.00,	0.07,	14.71,	2.12,	1.23,	2.37,	4.16,	13.27,	8.24,	12.55,	0.24,	0.04,	13.36,	14.96,	1642,	1654
55,	8412,	8410,	8939,	8267,	7454,	8270,	7804,	8508,	8307,	8150,	8333,	8303,	9507,	8174,	0.00,	0.07,	14.71,	2.12,	1.23,	2.37,	4.16,	13.27,	8.24,	12.55,	0.24,	0.04,	13.36,	14.96,	1641,	1655
56,	8427,	8413,	8930,	8264,	7458,	8279,	7808,	8513,	8304,	8134,	8324,	8299,	9485,	8171,	0.00,	0.07,	14.71,	2.12,	1.23,	2.37,	4.16,	13.27,	8.24,	12.55,	0.24,	0.04,	13.36,	14.96,	1641,	1655
57,	8418,	8411,	8921,	8261,	7461,	8284,	7817,	8517,	8303,	8117,	8315,	8286,	9477,	8164,	0.00,	0.07,	14.71,	2.12,	1.23,	2.37,	4.16,	13.27,	8.24,	12.55,	0.24,	0.04,	13.36,	14.96,	1640,	1654
58,	8411,	8407,	8930,	8262,	7461,	8272,	7813,	8506,	8296,	8115,	8314,	8285,	9471,	8162,	0.00,	0.07,	14.71,	2.12,	1.23,	2.37,	4.16,	13.27,	8.24,	12.55,	0.24,	0.04,	13.36,	14.96,	1640,	1654
59,	8433,	8424,	8946,	8277,	7463,	8264,	7808,	8514,	8306,	8144,	8332,	8302,	9483,	8172,	0.00,	0.07,	14.71,	2.12,	1.23,	2.37,	4.16,	13.27,	8.24,	12.55,	0.24,	0.04,	13.36,	14.96,	1640,	1653
60,	8447,	8440,	8954,	8293,	7473,	8275,	7814,	8529,	8321,	8161,	8347,	8321,	9507,	8186,	0.00,	0.07,	14.71,	2.12,	1.23,	2.37,	4.16,	13.27,	8.24,	12.55,	0.24,	0.04,	13.36,	14.96,	1639,	1655
61,	8441,	8430,	8948,	8300,	7476,	8284,	7823,	8531,	8324,	8142,	8347,	8324,	9501,	8197,	0.00,	0.07,	14.71,	2.12,	1.23,	2.37,	4.16,	13.27,	8.24,	12.55,	0.24,	0.04,	13.36,	14.96,	1640,	1656
62,	8435,	8410,	8942,	8297,	7457,	8275,	7817,	8519,	8315,	8145,	8338,	8311,	9488,	8193,	0.00,	0.07,	14.71,	2.12,	1.23,	2.37,	4.16,	13.27,	8.24,	12.55,	0.24,	0.04,	13.36,	14.96,	1640,	1655
63,	8433,	8413,	8943,	8290,	7455,	8268,	7805,	8501,	8303,	8170,	8342,	8309,	9500,	8184,	0.00,	0.07,	14.71,	2.12,	1.23,	2.37,	4.16,	13.27,	8.24,	12.55,	0.24,	0.04,	13.36,	14.96,	1640,	1654
64,	8438,	8420,	8946,	8288,	7465,	8276,	7807,	8505,	8315,	8162,	8355,	8316,	9511,	8184,	0.04,	0.07,	14.71,	2.12,	1.23,	2.37,	4.16,	13.27,	8.24,	12.55,	0.24,	0.04,	13.36,	14.96,	1641,	1653
65,	8446,	8416,	8942,	8282,	7461,	8277,	7814,	8526,	8337,	8136,	8348,	8307,	9504,	8187,	0.04,	0.09,	14.71,	2.12,	1.23,	2.37,	4.16,	13.27,	8.24,	12.55,	0.24,	0.04,	13.36,	14.96,	1642,	1652
66,	8449,	8427,	8944,	8286,	7467,	8271,	7814,	8530,	8339,	8141,	8348,	8308,	9507,	8191,	0.04,	0.09,	14.73,	2.12,	1.23,	2.37,	4.16,	13.27,	8.24,	12.55,	0.24,	0.04,	13.36,	14.96,	1642,	1652
67,	8441,	8438,	8954,	8293,	7483,	8280,	7820,	8516,	8334,	8161,	8366,	8327,	9521,	8201,	0.04,	0.09,	14.73,	2.07,	1.23,	2.37,	4.16,	13.27,	8.24,	12.55,	0.24,	0.04,	13.36,	14.96,	1643,	1655
68,	8443,	8428,	8960,	8293,	7477,	8294,	7827,	8517,	8334,	8161,	8364,	8332,	9530,	8211,	0.04,	0.09,	14.73,	2.07,	1.23,	2.37,	4.16,	13.27,	8.24,	12.55,	0.24,	0.04,	13.36,	14.96,	1644,	1653
69,	8465,	8434,	8968,	8298,	7467,	8294,	7829,	8532,	8339,	8153,	8357,	8330,	9532,	8215,	0.04,	0.09,	14.73,	2.07,	1.23,	2.39,	4.16,	13.27,	8.24,	12.55,	0.24,	0.04,	13.36,	14.96,	1643,	1656
70,	8471,	8448,	8973,	8304,	7467,	8284,	7827,	8534,	8347,	8156,	8364,	8337,	9537,	8217,	0.04,	0.09,	14.73,	2.07,	1.23,	2.39,	4.19,	13.27,	8.24,	12.55,	0.24,	0.04,	13.36,	14.96,	1644,	1656
71,	8452,	8431,	8956,	8301,	7455,	8276,	7821,	8530,	8357,	8175,	8355,	8331,	9543,	8209,	0.04,	0.09,	14.73,	2.07,	1.23,	2.39,	4.19,	13.29,	8.24,	12.55,	0.24,	0.04,	13.36,	14.96,	1644,	1656
72,	8448,	8412,	8939,	8286,	7437,	8270,	7820,	8528,	8345,	8174,	8336,	8316,	9523,	8202,	0.04,	0.09,	14.73,	2.07,	1.23,	2.39,	4.19,	13.29,	8.24,	12.55,	0.24,	0.04,	13.36,	14.96,	1644,	1656
73,	8454,	8411,	8947,	8273,	7432,	8268,	7821,	8520,	8323,	8129,	8336,	8315,	9500,	8203,	0.04,	0.09,	14.73,	2.07,	1.23,	2.39,	4.19,	13.29,	8.24,	12.52,	0.24,	0.04,	13.36,	14.96,	1643,	1658
74,	8450,	8414,	8948,	8273,	7452,	8268,	7820,	8512,	8319,	8108,	8341,	8317,	9508,	8201,	0.04,	0.09,	14.73,	2.07,	1.23,	2.39,	4.19,	13.29,	8.24,	12.52,	0.24,	0.04,	13.36,	14.96,	1643,	1660
75,	8448,	8429,	8943,	8277,	7468,	8269,	7815,	8509,	8326,	8123,	8337,	8308,	9511,	8190,	0.04,	0.09,	14.73,	2.07,	1.23,	2.39,	4.19,	13.29,	8.24,	12.52,	0.24,	0.04,	13.36,	14.96,	1642,	1661
76,	8459,	8443,	8955,	8281,	7466,	8282,	7827,	8521,	8339,	8137,	8340,	8313,	9507,	8195,	0.04,	0.09,	14.73,	2.07,	1.23,	2.39,	4.19,	13.29,	8.24,	12.52,	0.24,	0.04,	13.38,	14.96,	1642,	1662
77,	8467,	8420,	8958,	8279,	7453,	8291,	7851,	8538,	8350,	8157,	8337,	8322,	9519,	8213,	0.04,	0.09,	14.73,	2.07,	1.23,	2.39,	4.19,	13.29,	8.24,	12.52,	0.24,	0.04,	13.38,	14.98,	1639,	1663
78,	8457,	8391,	8940,	8261,	7449,	8275,	7835,	8524,	8339,	8156,	8319,	8310,	9508,	8207,	0.04,	0.09,	14.73,	2.07,	1.23,	2.39,	4.19,	13.29,	8.24,	12.52,	0.28,	0.04,	13.38,	14.98,	1639,	1662
79,	8440,	8399,	8936,	8250,	7464,	8258,	7802,	8498,	8316,	8121,	8318,	8304,	9478,	8190,	0.04,	0.09,	14.73,	2.07,	1.23,	2.39,	4.19,	13.29,	8.24,	12.52,	0.28,	0.03,	13.38,	14.98,	1637,	1662
80,	8440,	8420,	8943,	8258,	7475,	8263,	7804,	8505,	8313,	8114,	8329,	8313,	9487,	8191,	0.04,	0.09,	14.73,	2.07,	1.23,	2.39,	4.19,	13.29,	8.24,	12.52,	0.28,	0.03,	13.33,	14.98,	1637,	1660
81,	8451,	8428,	8941,	8269,	7474,	8282,	7828,	8530,	8332,	8143,	8332,	8315,	9507,	8204,	0.04,	0.09,	14.73,	2.07,	1.23,	2.39,	4.19,	13.29,	8.24,	12.52,	0.28,	0.03,	13.33,	14.93,	1636,	1658
82,	8444,	8419,	8937,	8273,	7452,	8286,	7836,	8531,	8340,	8142,	8331,	8314,	9496,	8199,	0.04,	0.09,	14.73,	2.07,	1.23,	2.39,	4.19,	13.29,	8.24,	12.52,	0.24,	0.03,	13.33,	14.93,	1637,	1657
83,	8442,	8411,	8939,	8263,	7438,	8276,	7835,	8530,	8340,	8141,	8339,	8326,	9494,	8186,	0.04,	0.09,	14.73,	2.07,	1.23,	2.39,	4.19,	13.29,	8.24,	12.52,	0.24,	0.04,	13.33,	14.93,	1636,	1657
84,	8462,	8435,	8946,	8266,	7481,	8289,	7852,	8558,	8357,	8174,	8358,	8334,	9518,	8197,	0.04,	0.09,	14.73,	2.07,	1.23,	2.39,	4.19,	13.29,	8.24,	12.52,	0.24,	0.04,	13.33,	14.93,	1636,	1658
85,	8456,	8455,	8945,	8282,	7511,	8306,	7862,	8574,	8365,	8176,	8351,	8328,	9515,	8207,	0.04,	0.09,	14.73,	2.07,	1.23,	2.39,	4.19,	13.29,	8.24,	12.52,	0.24,	0.04,	13.33,	14.96,	1635,	1658
86,	8441,	8434,	8941,	8280,	7484,	8299,	7849,	8561,	8361,	8154,	8333,	8327,	9485,	8203,	0.04,	0.09,	14.73,	2.07,	1.23,	2.39,	4.19,	13.29,	8.24,	12.52,	0.25,	0.04,	13.33,	14.96,	1636,	1660
87,	8463,	8419,	8947,	8274,	7470,	8286,	7841,	8562,	8367,	8161,	8346,	8342,	9478,	8213,	0.04,	0.09,	14.73,	2.07,	1.23,	2.39,	4.19,	13.29,	8.24,	12.52,	0.25,	0.01,	13.33,	14.96,	1636,	1657
88,	8480,	8438,	8952,	8281,	7488,	8280,	7840,	8561,	8358,	8171,	8349,	8344,	9469,	8223,	0.04,	0.09,	14.73,	2.07,	1.23,	2.39,	4.19,	13.29,	8.24,	12.52,	0.25,	0.01,	13.33,	14.96,	1636,	1658
89,	8452,	8452,	8941,	8278,	7488,	8278,	7836,	8547,	8343,	8164,	8335,	8325,	9438,	8200,	0.04,	0.09,	14.73,	2.07,	1.23,	2.39,	4.19,	13.29,	8.24,	12.52,	0.25,	0.01,	13.33,	14.93,	1638,	1656
90,	8431,	8435,	8929,	8260,	7466,	8275,	7831,	8557,	8349,	8163,	8346,	8323,	9426,	8186,	0.04,	0.09,	14.73,	2.07,	1.23,	2.39,	4.19,	13.29,	8.24,	12.52,	0.28,	0.01,	13.33,	14.93,	1637,	1658
91,	8445,	8416,	8935,	8266,	7484,	8274,	7833,	8569,	8365,	8176,	8369,	8342,	9433,	8214,	0.04,	0.09,	14.73,	2.07,	1.23,	2.39,	4.19,	13.29,	8.24,	12.52,	0.28,	0.01,	13.33,	14.93,	1638,	1658
92,	8464,	8440,	8946,	8286,	7509,	8278,	7838,	8551,	8361,	8187,	8370,	8355,	9425,	8228,	0.04,	0.09,	14.73,	2.07,	1.23,	2.39,	4.19,	13.29,	8.24,	12.52,	0.28,	0.01,	13.36,	14.93,	1638,	1658
93,	8464,	8466,	8945,	8279,	7484,	8280,	7837,	8546,	8357,	8184,	8359,	8350,	9405,	8213,	0.04,	0.09,	14.73,	2.07,	1.23,	2.39,	4.19,	13.29,	8.24,	12.52,	0.28,	0.01,	13.36,	14.95,	1639,	1658
94,	8459,	8445,	8938,	8266,	7468,	8279,	7846,	8576,	8377,	8192,	8355,	8350,	9393,	8217,	0.04,	0.09,	14.73,	2.07,	1.23,	2.39,	4.19,	13.29,	8.24,	12.52,	0.27,	0.01,	13.36,	14.95,	1638,	1659
95,	8468,	8430,	8941,	8279,	7498,	8290,	7866,	8594,	8392,	8207,	8361,	8360,	9388,	8231,	0.04,	0.09,	14.73,	2.07,	1.23,	2.39,	4.19,	13.29,	8.24,	12.52,	0.27,	0.03,	13.36,	14.95,	1640,	1660
96,	8480,	8458,	8952,	8300,	7517,	8308,	7875,	8595,	8394,	8206,	8367,	8365,	9381,	8229,	0.04,	0.09,	14.73,	2.07,	1.23,	2.39,	4.19,	13.29,	8.24,	12.52,	0.27,	0.03,	13.38,	14.95,	1639,	1659
97,	8470,	8466,	8938,	8289,	7497,	8307,	7867,	8594,	8389,	8206,	8367,	8356,	9367,	8219,	0.04,	0.09,	14.73,	2.07,	1.23,	2.39,	4.19,	13.29,	8.24,	12.52,	0.27,	0.03,	13.38,	14.98,	1639,	1658
98,	8447,	8439,	8915,	8262,	7496,	8290,	7852,	8573,	8370,	8207,	8355,	8340,	9349,	8211,	0.04,	0.09,	14.73,	2.07,	1.23,	2.39,	4.19,	13.29,	8.24,	12.52,	0.24,	0.03,	13.38,	14.98,	1640,	1657
99,	8452,	8441,	8920,	8279,	7524,	8289,	7859,	8569,	8370,	8203,	8354,	8345,	9339,	8219,	0.04,	0.09,	14.73,	2.07,	1.23,	2.39,	4.19,	13.29,	8.24,	12.52,	0.24,	0.04,	13.38,	14.98,	1640,	1659
100,	8464,	8463,	8931,	8307,	7526,	8307,	7876,	8594,	8391,	8206,	8360,	8358,	9333,	8232,	0.04,	0.09,	14.73,	2.07,	1.23,	2.39,	4.19,	13.29,	8.24,	12.52,	0.24,	0.04,	13.33,	14.98,	1642,	1660
101,	8451,	8453,	8913,	8286,	7507,	8307,	7873,	8607,	8392,	8203,	8355,	8348,	9318,	8215,	0.04,	0.09,	14.73,	2.07,	1.23,	2.39,	4.19,	13.29,	8.24,	12.52,	0.24,	0.04,	13.33,	14.95,	1641,	1658
102,	8445,	8436,	8888,	8262,	7508,	8297,	7873,	8609,	8384,	8194,	8346,	8340,	9302,	8201,	0.04,	0.09,	14.73,	2.07,	1.23,	2.39,	4.19,	13.29,	8.24,	12.52,	0.25,	0.04,	13.33,	14.95,	1642,	1656
103,	8447,	8439,	8886,	8266,	7512,	8298,	7878,	8603,	8374,	8188,	8337,	8344,	9291,	8209,	0.04,	0.09,	14.73,	2.07,	1.23,	2.39,	4.19,	13.29,	8.24,	12.52,	0.25,	0.03,	13.33,	14.95,	1643,	1653
104,	8437,	8441,	8883,	8269,	7506,	8293,	7871,	8587,	8357,	8181,	8329,	8334,	9283,	8203,	0.04,	0.09,	14.73,	2.07,	1.23,	2.39,	4.19,	13.29,	8.24,	12.52,	0.25,	0.03,	13.38,	14.95,	1644,	1652
105,	8439,	8448,	8885,	8275,	7529,	8290,	7878,	8594,	8370,	8182,	8331,	8330,	9284,	8200,	0.04,	0.09,	14.73,	2.07,	1.23,	2.39,	4.19,	13.29,	8.24,	12.52,	0.25,	0.03,	13.38,	14.96,	1645,	1653
106,	8449,	8465,	8895,	8280,	7552,	8302,	7898,	8612,	8384,	8196,	8340,	8345,	9292,	8213,	0.04,	0.09,	14.73,	2.07,	1.23,	2.39,	4.19,	13.29,	8.24,	12.52,	0.27,	0.03,	13.38,	14.96,	1644,	1652
107,	8443,	8460,	8891,	8274,	7520,	8312,	7892,	8606,	8371,	8200,	8348,	8353,	9291,	8216,	0.04,	0.09,	14.73,	2.07,	1.23,	2.39,	4.19,	13.29,	8.24,	12.52,	0.27,	0.00,	13.38,	14.96,	1644,	1652
108,	8443,	8445,	8896,	8281,	7491,	8305,	7875,	8606,	8378,	8201,	8349,	8356,	9289,	8216,	0.04,	0.09,	14.73,	2.07,	1.23,	2.39,	4.19,	13.29,	8.24,	12.52,	0.27,	0.00,	13.38,	14.96,	1644,	1653
109,	8453,	8459,	8906,	8297,	7528,	8296,	7879,	8613,	8388,	8209,	8352,	8363,	9294,	8223,	0.04,	0.09,	14.73,	2.07,	1.23,	2.39,	4.19,	13.29,	8.24,	12.52,	0.27,	0.00,	13.38,	14.98,	1644,	1653
110,	8443,	8479,	8894,	8286,	7551,	8299,	7885,	8599,	8366,	8204,	8349,	8358,	9295,	8221,	0.04,	0.09,	14.73,	2.07,	1.23,	2.39,	4.19,	13.29,	8.24,	12.52,	0.25,	0.00,	13.38,	14.98,	1642,	1656
111,	8429,	8463,	8873,	8266,	7518,	8302,	7882,	8585,	8352,	8185,	8333,	8346,	9296,	8210,	0.04,	0.09,	14.73,	2.07,	1.23,	2.39,	4.19,	13.29,	8.24,	12.52,	0.25,	0.03,	13.38,	14.98,	1643,	1655
112,	8438,	8443,	8877,	8283,	7515,	8299,	7880,	8599,	8378,	8178,	8333,	8352,	9309,	8213,	0.04,	0.09,	14.73,	2.07,	1.23,	2.39,	4.19,	13.29,	8.24,	12.52,	0.25,	0.03,	13.33,	14.98,	1641,	1655
113,	8449,	8451,	8891,	8300,	7536,	8292,	7881,	8617,	8394,	8198,	8344,	8367,	9322,	8224,	0.04,	0.09,	14.73,	2.07,	1.23,	2.39,	4.19,	13.29,	8.24,	12.52,	0.25,	0.03,	13.33,	14.95,	1641,	1655
114,	8442,	8469,	8879,	8283,	7528,	8278,	7874,	8606,	8376,	8218,	8332,	8360,	9328,	8218,	0.04,	0.09,	14.73,	2.07,	1.23,	2.39,	4.19,	13.29,	8.24,	12.52,	0.27,	0.03,	13.33,	14.95,	1640,	1654
115,	8434,	8469,	8874,	8275,	7511,	8269,	7871,	8594,	8366,	8205,	8331,	8347,	9329,	8207,	0.04,	0.09,	14.73,	2.07,	1.23,	2.39,	4.19,	13.29,	8.24,	12.52,	0.27,	0.04,	13.33,	14.95,	1639,	1655
116,	8438,	8448,	8877,	8277,	7506,	8276,	7878,	8595,	8363,	8172,	8341,	8349,	9319,	8206,	0.04,	0.09,	14.73,	2.07,	1.23,	2.39,	4.19,	13.29,	8.24,	12.52,	0.27,	0.04,	13.36,	14.95,	1638,	1655
117,	8443,	8446,	8863,	8272,	7517,	8282,	7875,	8588,	8359,	8174,	8325,	8355,	9317,	8208,	0.04,	0.09,	14.73,	2.07,	1.23,	2.39,	4.19,	13.29,	8.24,	12.52,	0.27,	0.04,	13.36,	14.98,	1637,	1656
118,	8433,	8468,	8859,	8281,	7538,	8273,	7863,	8578,	8361,	8200,	8322,	8360,	9340,	8212,	0.04,	0.09,	14.73,	2.07,	1.23,	2.39,	4.19,	13.29,	8.24,	12.52,	0.28,	0.04,	13.36,	14.98,	1637,	1654
119,	8428,	8473,	8872,	8295,	7542,	8273,	7866,	8584,	8365,	8202,	8343,	8362,	9357,	8219,	0.04,	0.09,	14.73,	2.07,	1.23,	2.39,	4.19,	13.29,	8.24,	12.52,	0.28,	0.03,	13.36,	14.98,	1636,	1654
120,	8433,	8453,	8863,	8288,	7523,	8289,	7887,	8597,	8364,	8187,	8337,	8357,	9355,	8218,	0.04,	0.09,	14.73,	2.07,	1.23,	2.39,	4.19,	13.29,	8.24,	12.52,	0.28,	0.03,	13.38,	14.98,	1636,	1651
121,	8434,	8439,	8846,	8284,	7537,	8299,	7900,	8594,	8365,	8179,	8323,	8360,	9359,	8211,	0.04,	0.09,	14.73,	2.07,	1.23,	2.39,	4.19,	13.29,	8.24,	12.52,	0.28,	0.03,	13.38,	14.93,	1634,	1651
122,	8437,	8446,	8856,	8302,	7573,	8298,	7897,	8591,	8380,	8183,	8330,	8380,	9370,	8223,	0.04,	0.09,	14.73,	2.07,	1.23,	2.39,	4.19,	13.29,	8.24,	12.52,	0.25,	0.03,	13.38,	14.93,	1635,	1649
123,	8438,	8458,	8863,	8305,	7556,	8295,	7899,	8589,	8387,	8198,	8334,	8386,	9373,	8235,	0.04,	0.09,	14.73,	2.07,	1.23,	2.39,	4.19,	13.29,	8.24,	12.52,	0.25,	0.04,	13.38,	14.93,	1632,	1649
124,	8433,	8461,	8852,	8297,	7532,	8300,	7901,	8579,	8388,	8217,	8335,	8376,	9384,	8226,	0.04,	0.09,	14.73,	2.07,	1.23,	2.39,	4.19,	13.29,	8.24,	12.52,	0.25,	0.04,	13.35,	14.93,	1633,	1651
125,	8437,	8446,	8851,	8296,	7536,	8298,	7898,	8572,	8393,	8217,	8333,	8378,	9400,	8228,	0.04,	0.09,	14.73,	2.07,	1.23,	2.39,	4.19,	13.29,	8.24,	12.52,	0.25,	0.04,	13.35,	14.96,	1632,	1648
126,	8433,	8437,	8850,	8281,	7529,	8273,	7879,	8554,	8375,	8187,	8317,	8371,	9390,	8225,	0.04,	0.09,	14.73,	2.07,	1.23,	2.39,	4.19,	13.29,	8.24,	12.52,	0.28,	0.04,	13.35,	14.96,	1632,	1651
127,	8413,	8456,	8840,	8282,	7533,	8270,	7874,	8529,	8357,	8166,	8314,	8354,	9382,	8208,	0.04,	0.09,	14.73,	2.07,	1.23,	2.39,	4.19,	13.29,	8.24,	12.52,	0.28,	0.03,	13.35,	14.96,	1633,	1650
0,	8418,	8454,	8823,	8287,	7547,	8296,	7905,	8508,	8365,	8172,	8320,	8360,	9407,	8212,	0.01,	0.09,	14.73,	2.07,	1.23,	2.39,	4.19,	13.29,	8.24,	12.52,	0.28,	0.03,	13.35,	14.96,	1633,	1652
1,	8408,	8442,	8819,	8274,	7527,	8280,	7901,	8501,	8363,	8176,	8312,	8353,	9407,	8206,	0.01,	0.07,	14.73,	2.07,	1.23,	2.39,	4.19,	13.29,	8.24,	12.52,	0.28,	0.03,	13.35,	14.96,	1635,	1652
2,	8398,	8447,	8822,	8285,	7543,	8278,	7900,	8504,	8373,	8178,	8320,	8353,	9415,	8204,	0.01,	0.07,	14.70,	2.07,	1.23,	2.39,	4.19,	13.29,	8.24,	12.52,	0.28,	0.03,	13.35,	14.96,	1635,	1651
3,	8405,	8447,	8814,	8286,	7554,	8280,	7902,	8501,	8376,	8170,	8317,	8357,	9419,	8204,	0.01,	0.07,	14.70,	2.10,	1.23,	2.39,	4.19,	13.29,	8.24,	12.52,	0.28,	0.03,	13.35,	14.96,	1636,	1652
4,	8408,	8437,	8795,	8271,	7529,	8274,	7898,	8485,	8373,	8169,	8303,	8358,	9426,	8203,	0.01,	0.07,	14.70,	2.10,	1.21,	2.39,	4.19,	13.29,	8.24,	12.52,	0.28,	0.03,	13.35,	14.96,	1638,	1653
5,	8399,	8431,	8796,	8263,	7513,	8269,	7882,	8465,	8371,	8167,	8299,	8360,	9439,	8202,	0.01,	0.07,	14.70,	2.10,	1.21,	2.40,	4.19,	13.29,	8.24,	12.52,	0.28,	0.03,	13.35,	14.96,	1638,	1655
6,	8397,	8447,	8812,	8278,	7544,	8261,	7876,	8460,	8369,	8166,	8312,	8372,	9444,	8204,	0.01,	0.07,	14.70,	2.10,	1.21,	2.40,	4.15,	13.29,	8.24,	12.52,	0.28,	0.03,	13.35,	14.96,	1639,	1654
7,	8408,	8471,	8821,	8301,	7549,	8262,	7893,	8469,	8381,	8192,	8327,	8383,	9456,	8209,	0.01,	0.07,	14.70,	2.10,	1.21,	2.40,	4.15,	13.29,	8.24,	12.52,	0.28,	0.03,	13.35,	14.96,	1640,	1653
8,	8407,	8476,	8812,	8303,	7512,	8275,	7904,	8470,	8388,	8206,	8332,	8382,	9466,	8211,	0.01,	0.07,	14.70,	2.10,	1.21,	2.40,	4.15,	13.29,	8.24,	12.52,	0.28,	0.03,	13.35,	14.96,	1641,	1653
9,	8395,	8465,	8799,	8286,	7518,	8262,	7886,	8448,	8373,	8178,	8328,	8374,	9453,	8202,	0.01,	0.07,	14.70,	2.10,	1.21,	2.40,	4.15,	13.29,	8.24,	12.53,	0.28,	0.03,	13.35,	14.96,	1640,	1656
10,	8398,	8457,	8802,	8276,	7539,	8239,	7875,	8430,	8359,	8165,	8324,	8374,	9452,	8198,	0.01,	0.07,	14.70,	2.10,	1.21,	2.40,	4.15,	13.29,	8.24,	12.53,	0.28,	0.03,	13.35,	14.96,	1641,	1656
11,	8405,	8462,	8818,	8292,	7527,	8251,	7889,	8437,	8369,	8195,	8338,	8383,	9480,	8205,	0.01,	0.07,	14.70,	2.10,	1.21,	2.40,	4.15,	13.29,	8.24,	12.53,	0.28,	0.01,	13.35,	14.96,	1640,	1657
12,	8400,	8457,	8823,	8303,	7528,	8270,	7893,	8440,	8381,	8216,	8356,	8385,	9502,	8207,	0.01,	0.07,	14.70,	2.10,	1.21,	2.40,	4.15,	13.29,	8.24,	12.53,	0.28,	0.01,	13.35,	14.96,	1641,	1655
13,	8397,	8458,	8808,	8286,	7544,	8267,	7886,	8429,	8380,	8199,	8351,	8385,	9493,	8210,	0.01,	0.07,	14.70,	2.10,	1.21,	2.40,	4.15,	13.29,	8.24,	12.53,	0.28,	0.01,	13.35,	14.96,	1639,	1653
14,	8390,	8481,	8793,	8269,	7536,	8254,	7887,	8422,	8370,	8176,	8341,	8383,	9482,	8204,	0.01,	0.07,	14.70,	2.10,	1.21,	2.40,	4.15,	13.29,	8.24,	12.53,	0.28,	0.01,	13.35,	14.96,	1640,	1655
15,	8374,	8485,	8785,	8272,	7525,	8244,	7882,	8408,	8351,	8172,	8349,	8375,	9484,	8189,	0.01,	0.07,	14.70,	2.10,	1.21,	2.40,	4.15,	13.29,	8.24,	12.53,	0.28,	0.03,	13.35,	14.96,	1640,	1654
16,	8372,	8470,	8786,	8288,	7527,	8251,	7879,	8395,	8351,	8179,	8366,	8379,	9496,	8191,	0.01,	0.07,	14.70,	2.10,	1.21,	2.40,	4.15,	13.29,	8.24,	12.53,	0.28,	0.03,	13.35,	14.96,	1639,	1658
17,	8379,	8466,	8791,	8285,	7518,	8256,	7880,	8401,	8369,	8176,	8365,	8387,	9505,	8199,	0.01,	0.07,	14.70,	2.10,	1.21,	2.40,	4.15,	13.29,	8.24,	12.53,	0.28,	0.03,	13.35,	14.96,	1640,	1657
18,	8370,	8466,	8781,	8265,	7513,	8246,	7881,	8402,	8371,	8173,	8345,	8374,	9501,	8190,	0.01,	0.07,	14.70,	2.10,	1.21,	2.40,	4.15,	13.29,	8.24,	12.53,	0.28,	0.03,	13.35,	14.96,	1641,	1654
19,	8352,	8457,	8765,	8261,	7518,	8242,	7888,	8393,	8354,	8171,	8334,	8364,	9496,	8180,	0.01,	0.07,	14.70,	2.10,	1.21,	2.40,	4.15,	13.29,	8.24,	12.53,	0.28,	0.03,	13.35,	14.96,	1642,	1651
20,	8342,	8446,	8753,	8258,	7515,	8243,	7887,	8382,	8339,	8148,	8328,	8359,	9498,	8170,	0.01,	0.07,	14.70,	2.10,	1.21,	2.40,	4.15,	13.29,	8.24,	12.53,	0.28,	0.03,	13.35,	14.96,	1641,	1651
21,	8341,	8432,	8751,	8238,	7513,	8246,	7885,	8383,	8349,	8147,	8320,	8353,	9508,	8163,	0.01,	0.07,	14.70,	2.10,	1.21,	2.40,	4.15,	13.29,	8.24,	12.53,	0.28,	0.03,	13.35,	14.96,	1643,	1651
22,	8348,	8438,	8759,	8238,	7507,	8256,	7895,	8402,	8368,	8177,	8323,	8362,	9509,	8170,	0.01,	0.07,	14.70,	2.10,	1.21,	2.40,	4.15,	13.29,	8.24,	12.53,	0.28,	0.03,	13.35,	14.96,	1641,	1653
23,	8340,	8456,	8752,	8246,	7495,	8239,	7882,	8404,	8359,	8172,	8327,	8364,	9509,	8165,	0.01,	0.07,	14.70,	2.10,	1.21,	2.40,	4.15,	13.29,	8.24,	12.53,	0.28,	0.03,	13.35,	14.96,	1643,	1654
24,	8320,	8450,	8734,	8244,	7495,	8212,	7858,	8381,	8343,	8143,	8324,	8351,	9511,	8151,	0.01,	0.07,	14.70,	2.10,	1.21,	2.40,	4.15,	13.29,	8.24,	12.53,	0.28,	0.03,	13.35,	14.96,	1642,	1654
25,	8319,	8441,	8737,	8253,	7500,	8213,	7862,	8374,	8348,	8153,	8321,	8355,	9505,	8156,	0.01,	0.07,	14.70,	2.10,	1.21,	2.40,	4.15,	13.29,	8.24,	12.53,	0.28,	0.03,	13.35,	14.96,	1643,	1654
26,	8322,	8452,	8743,	8259,	7499,	8211,	7868,	8391,	8349,	8175,	8324,	8362,	9510,	8157,	0.01,	0.07,	14.70,	2.10,	1.21,	2.40,	4.15,	13.29,	8.24,	12.53,	0.28,	0.03,	13.35,	14.96,	1644,	1652
27,	8309,	8443,	8727,	8242,	7484,	8208,	7855,	8388,	8338,	8180,	8326,	8352,	9528,	8149,	0.01,	0.07,	14.70,	2.10,	1.21,	2.40,	4.15,	13.29,	8.24,	12.53,	0.28,	0.03,	13.35,	14.96,	1644,	1654
28,	8311,	8428,	8725,	8243,	7486,	8216,	7855,	8378,	8352,	8187,	8331,	8356,	9547,	8154,	0.01,	0.07,	14.70,	2.10,	1.21,	2.40,	4.15,	13.29,	8.24,	12.53,	0.28,	0.03,	13.35,	14.96,	1645,	1652
29,	8320,	8444,	8740,	8264,	7505,	8217,	7869,	8390,	8372,	8179,	8335,	8363,	9537,	8156,	0.01,	0.07,	14.70,	2.10,	1.21,	2.40,	4.15,	13.29,	8.24,	12.53,	0.28,	0.03,	13.35,	14.96,	1645,	1654
30,	8301,	8444,	8724,	8239,	7486,	8202,	7856,	8382,	8342,	8140,	8317,	8345,	9503,	8136,	0.01,	0.07,	14.70,	2.10,	1.21,	2.40,	4.15,	13.29,	8.24,	12.53,	0.28,	0.03,	13.35,	14.96,	1645,	1653
31,	8293,	8438,	8713,	8213,	7477,	8197,	7855,	8372,	8332,	8144,	8305,	8347,	9507,	8133,	0.01,	0.07,	14.70,	2.10,	1.21,	2.40,	4.15,	13.29,	8.24,	12.53,	0.28,	0.03,	13.35,	14.96,	1646,	1653
32,	8316,	8463,	8732,	8241,	7511,	8214,	7891,	8397,	8367,	8179,	8324,	8373,	9544,	8156,	0.01,	0.07,	14.70,	2.10,	1.21,	2.40,	4.15,	13.29,	8.24,	12.53,	0.28,	0.03,	13.35,	14.96,	1645,	1652
33,	8314,	8466,	8736,	8250,	7511,	8229,	7897,	8406,	8359,	8157,	8327,	8375,	9543,	8157,	0.01,	0.07,	14.70,	2.10,	1.21,	2.40,	4.15,	13.29,	8.24,	12.53,	0.28,	0.03,	13.35,	14.96,	1644,	1651
34,	8293,	8449,	8726,	8239,	7489,	8225,	7877,	8381,	8334,	8140,	8320,	8373,	9531,	8145,	0.01,	0.07,	14.70,	2.10,	1.21,	2.40,	4.15,	13.29,	8.24,	12.53,	0.28,	0.03,	13.35,	14.96,	1644,	1651
35,	8296,	8455,	8729,	8253,	7509,	8215,	7881,	8384,	8346,	8179,	8334,	8381,	9550,	8150,	0.01,	0.07,	14.70,	2.10,	1.21,	2.40,	4.15,	13.29,	8.24,	12.53,	0.28,	0.03,	13.35,	14.96,	1643,	1651
36,	8312,	8464,	8737,	8264,	7522,	8221,	7892,	8413,	8365,	8192,	8344,	8381,	9558,	8165,	0.01,	0.07,	14.70,	2.10,	1.21,	2.40,	4.15,	13.29,	8.24,	12.53,	0.28,	0.03,	13.35,	14.96,	1643,	1653
37,	8320,	8463,	8737,	8245,	7489,	8219,	7881,	8424,	8368,	8170,	8329,	8383,	9555,	8166,	0.01,	0.07,	14.70,	2.10,	1.21,	2.40,	4.15,	13.29,	8.24,	12.53,	0.28,	0.03,	13.35,	14.96,	1642,	1652
38,	8310,	8473,	8731,	8245,	7487,	8208,	7879,	8420,	8370,	8167,	8317,	8388,	9564,	8157,	0.01,	0.07,	14.70,	2.10,	1.21,	2.40,	4.15,	13.29,	8.24,	12.53,	0.28,	0.03,	13.35,	14.96,	1641,	1654
39,	8295,	8474,	8728,	8266,	7524,	8227,	7898,	8426,	8369,	8189,	8335,	8389,	9572,	8163,	0.01,	0.07,	14.70,	2.10,	1.21,	2.40,	4.15,	13.29,	8.24,	12.53,	0.28,	0.03,	13.35,	14.96,	1642,	1654
40,	8300,	8456,	8730,	8253,	7524,	8233,	7896,	8433,	8357,	8207,	8350,	8394,	9574,	8173,	0.01,	0.07,	14.70,	2.10,	1.21,	2.40,	4.15,	13.29,	8.24,	12.53,	0.28,	0.03,	13.35,	14.96,	1640,	1655
41,	8304,	8453,	8719,	8233,	7508,	8209,	7880,	8433,	8355,	8207,	8348,	8395,	9570,	8172,	0.01,	0.07,	14.70,	2.10,	1.21,	2.40,	4.15,	13.29,	8.24,	12.53,	0.28,	0.03,	13.35,	14.96,	1640,	1657
42,	8290,	8470,	8697,	8245,	7516,	8202,	7880,	8435,	8364,	8189,	8343,	8392,	9570,	8164,	0.01,	0.07,	14.70,	2.10,	1.21,	2.40,	4.15,	13.29,	8.24,	12.53,	0.28,	0.03,	13.35,	14.96,	1638,	1656
43,	8285,	8478,	8690,	8251,	7519,	8217,	7885,	8435,	8356,	8172,	8332,	8391,	9570,	8159,	0.01,	0.07,	14.70,	2.10,	1.21,	2.40,	4.15,	13.29,	8.24,	12.53,	0.28,	0.03,	13.35,	14.96,	1639,	1656
44,	8295,	8473,	8689,	8235,	7520,	8222,	7883,	8440,	8348,	8182,	8327,	8392,	9563,	8164,	0.01,	0.07,	14.70,	2.10,	1.21,	2.40,	4.15,	13.29,	8.24,	12.53,	0.28,	0.03,	13.35,	14.96,	1637,	1653
45,	8289,	8465,	8684,	8225,	7525,	8222,	7888,	8450,	8352,	8182,	8328,	8392,	9558,	8167,	0.01,	0.07,	14.70,	2.10,	1.21,	2.40,	4.15,	13.29,	8.24,	12.53,	0.28,	0.03,	13.35,	14.96,	1637,	1653
46,	8278,	8453,	8678,	8222,	7519,	8219,	7894,	8450,	8353,	8155,	8327,	8386,	9564,	8156,	0.01,	0.07,	14.70,	2.10,	1.21,	2.40,	4.15,	13.29,	8.24,	12.53,	0.28,	0.03,	13.35,	14.96,	1637,	1653
47,	8273,	8442,	8675,	8218,	7534,	8213,	7891,	8462,	8364,	8155,	8328,	8386,	9567,	8154,	0.01,	0.07,	14.70,	2.10,	1.21,	2.40,	4.15,	13.29,	8.24,	12.53,	0.28,	0.03,	13.35,	14.96,	1637,	1653
48,	8260,	8440,	8668,	8210,	7540,	8213,	7884,	8472,	8365,	8173,	8314,	8384,	9559,	8154,	0.01,	0.07,	14.70,	2.10,	1.21,	2.40,	4.15,	13.29,	8.24,	12.53,	0.28,	0.03,	13.35,	14.96,	1637,	1652
49,	8237,	8436,	8651,	8195,	7494,	8205,	7876,	8448,	8336,	8148,	8273,	8362,	9534,	8124,	0.01,	0.07,	14.70,	2.10,	1.21,	2.40,	4.15,	13.29,	8.24,	12.53,	0.28,	0.03,	13.35,	14.96,	1636,	1654
50,	8220,	8430,	8638,	8187,	7474,	8193,	7869,	8420,	8318,	8117,	8261,	8345,	9519,	8099,	0.01,	0.07,	14.70,	2.10,	1.21,	2.40,	4.15,	13.29,	8.24,	12.53,	0.28,	0.03,	13.35,	14.96,	1638,	1653
51,	8228,	8435,	8652,	8196,	7514,	8201,	7868,	8429,	8333,	8136,	8303,	8361,	9543,	8114,	0.01,	0.07,	14.70,	2.10,	1.21,	2.40,	4.15,	13.29,	8.24,	12.53,	0.28,	0.03,	13.35,	14.96,	1637,	1654
52,	8256,	8452,	8678,	8210,	7539,	8215,	7875,	8465,	8361,	8163,	8341,	8394,	9576,	8141,	0.01,	0.07,	14.70,	2.10,	1.21,	2.40,	4.15,	13.29,	8.24,	12.53,	0.28,	0.03,	13.35,	14.96,	1638,	1656
53,	8261,	8446,	8676,	8204,	7524,	8201,	7877,	8474,	8367,	8160,	8329,	8400,	9571,	8145,	0.01,	0.07,	14.70,	2.10,	1.21,	2.40,	4.15,	13.29,	8.24,	12.53,	0.28,	0.03,	13.35,	14.96,	1638,	1656
54,	8234,	8416,	8658,	8182,	7510,	8188,	7880,	8459,	8353,	8147,	8303,	8376,	9545,	8131,	0.01,	0.07,	14.70,	2.10,	1.21,	2.40,	4.15,	13.29,	8.24,	12.53,	0.28,	0.03,	13.35,	14.96,	1638,	1658
55,	8227,	8412,	8665,	8173,	7494,	8203,	7884,	8466,	8346,	8139,	8298,	8363,	9541,	8120,	0.01,	0.07,	14.70,	2.10,	1.21,	2.40,	4.15,	13.29,	8.24,	12.53,	0.28,	0.03,	13.35,	14.96,	1639,	1656
56,	8238,	8426,	8674,	8184,	7488,	8206,	7874,	8486,	8347,	8141,	8291,	8375,	9545,	8124,	0.01,	0.07,	14.70,	2.10,	1.21,	2.40,	4.15,	13.29,	8.24,	12.53,	0.28,	0.03,	13.35,	14.96,	1639,	1657
57,	8234,	8428,	8669,	8199,	7518,	8201,	7873,	8490,	8360,	8154,	8290,	8388,	9549,	8137,	0.01,	0.07,	14.70,	2.10,	1.21,	2.40,	4.15,	13.29,	8.24,	12.53,	0.28,	0.03,	13.35,	14.96,	1639,	1656
58,	8234,	8417,	8679,	8200,	7520,	8204,	7888,	8486,	8370,	8156,	8303,	8389,	9557,	8137,	0.01,	0.07,	14.70,	2.10,	1.21,	2.40,	4.15,	13.29,	8.24,	12.53,	0.28,	0.03,	13.35,	14.96,	1639,	1658
59,	8248,	8423,	8695,	8196,	7490,	8205,	7890,	8485,	8365,	8141,	8310,	8389,	9556,	8132,	0.01,	0.07,	14.70,	2.10,	1.21,	2.40,	4.15,	13.29,	8.24,	12.53,	0.28,	0.03,	13.35,	14.96,	1638,	1655
60,	8255,	8443,	8697,	8206,	7502,	8204,	7881,	8487,	8367,	8137,	8307,	8399,	9549,	8146,	0.01,	0.07,	14.70,	2.10,	1.21,	2.40,	4.15,	13.29,	8.24,	12.53,	0.28,	0.03,	13.35,	14.96,	1638,	1654
61,	8249,	8449,	8709,	8211,	7538,	8206,	7882,	8498,	8370,	8164,	8302,	8406,	9557,	8156,	0.01,	0.07,	14.70,	2.10,	1.21,	2.40,	4.15,	13.29,	8.24,	12.53,	0.28,	0.03,	13.35,	14.96,	1638,	1654
62,	8249,	8448,	8718,	8205,	7541,	8216,	7896,	8514,	8373,	8185,	8300,	8399,	9574,	8145,	0.01,	0.07,	14.70,	2.10,	1.21,	2.40,	4.15,	13.29,	8.24,	12.53,	0.28,	0.03,	13.35,	14.96,	1639,	1656
63,	8244,	8453,	8707,	8205,	7516,	8219,	7898,	8514,	8378,	8168,	8299,	8391,	9574,	8138,	0.01,	0.07,	14.70,	2.10,	1.21,	2.40,	4.15,	13.29,	8.24,	12.53,	0.28,	0.03,	13.35,	14.96,	1639,	1657
64,	8232,	8450,	8700,	8203,	7514,	8210,	7887,	8497,	8368,	8143,	8299,	8395,	9556,	8134,	0.04,	0.07,	14.70,	2.10,	1.21,	2.40,	4.15,	13.29,	8.24,	12.53,	0.28,	0.03,	13.35,	14.96,	1641,	1657
65,	8220,	8437,	8701,	8184,	7527,	8201,	7886,	8488,	8346,	8141,	8292,	8386,	9541,	8123,	0.04,	0.09,	14.70,	2.10,	1.21,	2.40,	4.15,	13.29,	8.24,	12.53,	0.28,	0.03,	13.35,	14.96,	1640,	1656
66,	8211,	8424,	8688,	8167,	7511,	8202,	7885,	8489,	8344,	8150,	8287,	8362,	9544,	8108,	0.04,	0.09,	14.71,	2.10,	1.21,	2.40,	4.15,	13.29,	8.24,	12.53,	0.28,	0.03,	13.35,	14.96,	1640,	1657
67,	8216,	8421,	8685,	8172,	7495,	8208,	7879,	8503,	8366,	8156,	8298,	8368,	9553,	8115,	0.04,	0.09,	14.71,	2.12,	1.21,	2.40,	4.15,	13.29,	8.24,	12.53,	0.28,	0.03,	13.35,	14.96,	1642,	1654
68,	8223,	8421,	8703,	8182,	7508,	8206,	7881,	8520,	8375,	8164,	8304,	8385,	9555,	8129,	0.04,	0.09,	14.71,	2.12,	1.20,	2.40,	4.15,	13.29,	8.24,	12.53,	0.28,	0.03,	13.35,	14.96,	1641,	1655
69,	8225,	8429,	8705,	8175,	7515,	8200,	7883,	8525,	8381,	8171,	8298,	8382,	9563,	8128,	0.04,	0.09,	14.71,	2.12,	1.20,	2.41,	4.15,	13.29,	8.24,	12.53,	0.28,	0.03,	13.35,	14.96,	1643,	1654
70,	8223,	8432,	8695,	8175,	7504,	8207,	7884,	8522,	8389,	8190,	8298,	8379,	9569,	8121,	0.04,	0.09,	14.71,	2.12,	1.20,	2.41,	4.15,	13.29,	8.24,	12.53,	0.28,	0.03,	13.35,	14.96,	1642,	1654
71,	8222,	8415,	8710,	8183,	7510,	8224,	7893,	8529,	8389,	8207,	8301,	8389,	9570,	8130,	0.04,	0.09,	14.71,	2.12,	1.20,	2.41,	4.15,	13.35,	8.24,	12.53,	0.28,	0.03,	13.35,	14.96,	1643,	1653
72,	8232,	8409,	8730,	8190,	7534,	8226,	7898,	8539,	8390,	8208,	8307,	8397,	9578,	8149,	0.04,	0.09,	14.71,	2.12,	1.20,	2.41,	4.15,	13.35,	8.27,	12.53,	0.28,	0.03,	13.35,	14.96,	1643,	1651
73,	8222,	8426,	8713,	8178,	7519,	8200,	7877,	8530,	8381,	8187,	8297,	8380,	9574,	8135,	0.04,	0.09,	14.71,	2.12,	1.20,	2.41,	4.15,	13.35,	8.27,	12.52,	0.28,	0.03,	13.35,	14.96,	1643,	1652
74,	8193,	8426,	8689,	8165,	7498,	8193,	7865,	8521,	8374,	8167,	8280,	8362,	9560,	8102,	0.04,	0.09,	14.71,	2.12,	1.20,	2.41,	4.15,	13.35,	8.27,	12.52,	0.25,	0.03,	13.35,	14.96,	1643,	1652
75,	8195,	8418,	8697,	8175,	7510,	8210,	7882,	8534,	8378,	8183,	8281,	8371,	9560,	8102,	0.04,	0.09,	14.71,	2.12,	1.20,	2.41,	4.15,	13.35,	8.27,	12.52,	0.25,	0.03,	13.35,	14.96,	1643,	1654
