=====================
  Detection Session  
=====================
Name:		Ahmed Hemaly
Source:		Session_2014_04_17_82423/[T][2014-04-17 23-06-15] Ahmed Hemaly.csv
Date:		2014-04-17 23:16:59
Trials:		10
PreTime:	3
RecTime:	4
PostTime:	4
Classifier:	LEASTSQUARES
AvgDetectTime:	0.128841900826
Triggers:	6381, 7903, 9426, 10949, 12471, 13994, 15517, 17039, 18563, 20085
Directions:	1, 1, 1, 1, 1, 1, 1, 1, 1, 1
ClassesTypes:	2, 2, 2, 2, 2, 1, 1, 1, 1, 1
ClassesNames:	RIGHT, LEFT

RawData:
Count,	F3,	FC5,	AF3,	F7,	T7,	P7,	O1,	O2,	P8,	T8,	F8,	AF4,	FC6,	F4,	Q_F3,	Q_FC5,	Q_AF3,	Q_F7,	Q_T7,	Q_P7,	Q_O1,	Q_O2,	Q_P8,	Q_T8,	Q_F8,	Q_AF4,	Q_FC6,	Q_F4,	GyroX,	GyroY
114,	7531,	8756,	9888,	8537,	7814,	8628,	7744,	8876,	8576,	8812,	9754,	8913,	8816,	8906,	0.00,	0.00,	0.00,	0.00,	0.00,	0.00,	0.00,	0.00,	0.00,	0.00,	0.89,	0.93,	0.00,	15.07,	1630,	1641
115,	7532,	8758,	9875,	8543,	7859,	8628,	7763,	8879,	8574,	8724,	9739,	8907,	8813,	8910,	0.00,	0.00,	0.00,	0.00,	0.00,	0.00,	0.00,	0.00,	0.00,	0.00,	0.89,	0.93,	0.00,	15.07,	1632,	1640
116,	7515,	8742,	9834,	8541,	7874,	8641,	7778,	8857,	8588,	8702,	9701,	8887,	8799,	8886,	13.04,	0.00,	0.00,	0.00,	0.00,	0.00,	0.00,	0.00,	0.00,	0.00,	0.89,	0.89,	15.07,	15.08,	1635,	1643
117,	7487,	8724,	9803,	8520,	7853,	8637,	7786,	8869,	8603,	8817,	9703,	8875,	8804,	8849,	13.04,	0.00,	0.00,	0.00,	0.00,	0.00,	0.00,	0.00,	0.00,	0.00,	0.89,	0.89,	15.07,	15.08,	1637,	1643
118,	7492,	8728,	9799,	8516,	7876,	8628,	7797,	8885,	8597,	8777,	9702,	8865,	8813,	8849,	13.04,	0.00,	0.00,	0.00,	0.00,	0.00,	0.00,	0.00,	0.00,	0.00,	0.89,	0.89,	15.07,	15.08,	1639,	1646
119,	7501,	8737,	9802,	8531,	7864,	8636,	7817,	8860,	8565,	8632,	9648,	8847,	8791,	8853,	13.04,	0.00,	0.00,	0.00,	0.00,	0.00,	0.00,	0.00,	0.00,	0.00,	0.89,	0.89,	15.07,	15.08,	1644,	1649
120,	7481,	8724,	9796,	8523,	7856,	8641,	7827,	8839,	8538,	8618,	9629,	8839,	8774,	8848,	13.04,	0.00,	0.00,	0.00,	0.00,	0.00,	0.00,	0.00,	0.00,	0.00,	0.89,	0.89,	15.07,	15.08,	1646,	1658
121,	7458,	8702,	9784,	8497,	7879,	8634,	7812,	8827,	8523,	8673,	9632,	8828,	8760,	8839,	13.04,	0.00,	0.00,	0.00,	0.00,	0.00,	0.00,	0.00,	0.00,	0.00,	0.89,	0.89,	15.07,	15.08,	1651,	1667
122,	7458,	8690,	9779,	8494,	7800,	8629,	7822,	8821,	8511,	8699,	9594,	8821,	8736,	8833,	13.04,	0.00,	0.00,	0.00,	0.00,	0.00,	0.00,	0.00,	0.00,	0.00,	0.89,	0.89,	15.07,	15.08,	1654,	1670
123,	7464,	8696,	9775,	8502,	7765,	8637,	7864,	8842,	8496,	8576,	9585,	8837,	8741,	8840,	13.04,	0.00,	0.00,	0.00,	0.00,	0.00,	0.00,	0.00,	0.00,	0.00,	0.89,	0.89,	15.07,	15.08,	1658,	1674
124,	7465,	8718,	9777,	8520,	7887,	8625,	7881,	8859,	8505,	8478,	9627,	8849,	8776,	8854,	13.04,	0.00,	0.00,	0.00,	0.00,	0.00,	0.00,	0.00,	0.00,	0.00,	0.89,	0.89,	15.07,	15.08,	1664,	1670
125,	7471,	8729,	9770,	8540,	7907,	8598,	7882,	8850,	8547,	8670,	9625,	8848,	8779,	8852,	13.04,	14.65,	0.00,	0.00,	0.00,	0.00,	0.00,	0.00,	0.00,	0.00,	0.89,	0.89,	15.07,	15.08,	1668,	1667
126,	7463,	8711,	9732,	8525,	7812,	8606,	7892,	8860,	8560,	8774,	9592,	8850,	8759,	8828,	13.04,	14.65,	0.00,	0.00,	0.00,	0.00,	0.00,	0.00,	0.00,	0.00,	0.89,	0.89,	15.07,	15.08,	1672,	1659
127,	7430,	8683,	9674,	8502,	7831,	8636,	7904,	8862,	8511,	8577,	9588,	8832,	8745,	8797,	13.04,	14.65,	0.00,	0.00,	0.00,	0.00,	0.00,	0.00,	0.00,	0.00,	0.89,	0.89,	15.07,	15.08,	1675,	1651
0,	7390,	8660,	9598,	8486,	7798,	8616,	7956,	8830,	8524,	8658,	9532,	8786,	8700,	8753,	13.04,	14.65,	0.00,	0.00,	0.00,	0.00,	0.00,	0.00,	0.00,	0.00,	0.89,	0.89,	15.07,	15.08,	1681,	1638
1,	7414,	8665,	9638,	8508,	7839,	8593,	7961,	8879,	8562,	8678,	9595,	8849,	8752,	8798,	13.04,	14.65,	12.61,	11.57,	0.00,	0.00,	0.00,	0.00,	0.00,	0.00,	0.89,	0.89,	15.07,	15.08,	1682,	1636
2,	7423,	8678,	9692,	8556,	7888,	8571,	7951,	8864,	8536,	8637,	9635,	8896,	8779,	8814,	13.04,	14.65,	12.61,	11.57,	0.00,	0.00,	0.00,	0.00,	0.00,	0.00,	0.89,	0.89,	15.07,	15.08,	1680,	1641
3,	7406,	8675,	9708,	8554,	7855,	8548,	7953,	8804,	8487,	8618,	9584,	8882,	8738,	8789,	13.04,	14.65,	12.61,	11.57,	0.00,	0.00,	0.00,	0.00,	0.00,	0.00,	0.89,	0.89,	15.07,	15.08,	1678,	1641
4,	7388,	8648,	9688,	8521,	7825,	8554,	7941,	8777,	8462,	8601,	9551,	8855,	8698,	8761,	13.04,	14.65,	12.61,	11.57,	14.95,	0.00,	0.00,	0.00,	0.00,	0.00,	0.89,	0.89,	15.07,	15.08,	1673,	1641
5,	7387,	8630,	9656,	8530,	7788,	8548,	7924,	8761,	8443,	8568,	9554,	8850,	8690,	8741,	13.04,	14.65,	12.61,	11.57,	14.95,	2.79,	0.00,	0.00,	0.00,	0.00,	0.89,	0.89,	15.07,	15.08,	1669,	1640
6,	7394,	8637,	9622,	8543,	7733,	8498,	7936,	8746,	8422,	8497,	9532,	8840,	8689,	8731,	13.04,	14.65,	12.61,	11.57,	14.95,	2.79,	14.10,	0.00,	0.00,	0.00,	0.89,	0.89,	15.07,	15.08,	1662,	1641
7,	7401,	8633,	9589,	8522,	7806,	8479,	7954,	8755,	8412,	8476,	9533,	8830,	8693,	8730,	13.04,	14.65,	12.61,	11.57,	14.95,	2.79,	14.10,	13.30,	0.00,	0.00,	0.89,	0.89,	15.07,	15.08,	1656,	1643
8,	7392,	8596,	9533,	8504,	7921,	8513,	7948,	8731,	8388,	8512,	9543,	8820,	8671,	8702,	13.04,	14.65,	12.61,	11.57,	14.95,	2.79,	14.10,	13.30,	6.16,	0.00,	0.89,	0.89,	15.07,	15.08,	1651,	1648
9,	7380,	8567,	9474,	8493,	7839,	8516,	7938,	8684,	8368,	8499,	9500,	8794,	8626,	8651,	13.04,	14.65,	12.61,	11.57,	14.95,	2.79,	14.10,	13.30,	6.16,	12.18,	0.89,	0.89,	15.07,	15.08,	1647,	1651
10,	7396,	8574,	9453,	8485,	7732,	8470,	7951,	8687,	8381,	8504,	9480,	8784,	8617,	8627,	13.04,	14.65,	12.61,	11.57,	14.95,	2.79,	14.10,	13.30,	6.16,	12.18,	0.22,	0.89,	15.07,	15.08,	1642,	1660
11,	7427,	8589,	9454,	8502,	7781,	8446,	7945,	8695,	8389,	8553,	9504,	8806,	8630,	8639,	13.04,	14.65,	12.61,	11.57,	14.95,	2.79,	14.10,	13.30,	6.16,	12.18,	0.22,	0.73,	15.07,	15.08,	1640,	1666
12,	7458,	8584,	9458,	8518,	7827,	8454,	7914,	8665,	8357,	8525,	9520,	8827,	8637,	8658,	13.04,	14.65,	12.61,	11.57,	14.95,	2.79,	14.10,	13.30,	6.16,	12.18,	0.22,	0.73,	15.08,	15.08,	1637,	1668
13,	7488,	8572,	9448,	8493,	7786,	8468,	7922,	8656,	8341,	8527,	9509,	8819,	8629,	8653,	13.04,	14.65,	12.61,	11.57,	14.95,	2.79,	14.10,	13.30,	6.16,	12.18,	0.22,	0.73,	15.08,	14.79,	1637,	1671
14,	7508,	8571,	9435,	8485,	7809,	8461,	7944,	8663,	8345,	8595,	9481,	8808,	8607,	8638,	13.04,	14.65,	12.61,	11.57,	14.95,	2.79,	14.10,	13.30,	6.16,	12.18,	0.18,	0.73,	15.08,	14.79,	1637,	1669
15,	7535,	8573,	9435,	8506,	7879,	8439,	7928,	8634,	8319,	8527,	9471,	8811,	8599,	8649,	13.04,	14.65,	12.61,	11.57,	14.95,	2.79,	14.10,	13.30,	6.16,	12.18,	0.18,	0.71,	15.08,	14.79,	1637,	1670
16,	7569,	8572,	9425,	8497,	7808,	8431,	7912,	8629,	8322,	8413,	9498,	8824,	8612,	8670,	13.04,	14.65,	12.61,	11.57,	14.95,	2.79,	14.10,	13.30,	6.16,	12.18,	0.18,	0.71,	15.08,	14.79,	1639,	1668
17,	7582,	8572,	9400,	8484,	7776,	8449,	7917,	8664,	8355,	8507,	9506,	8826,	8609,	8663,	13.04,	14.65,	12.61,	11.57,	14.95,	2.79,	14.10,	13.30,	6.16,	12.18,	0.18,	0.71,	15.08,	14.79,	1641,	1667
18,	7591,	8573,	9385,	8502,	7840,	8461,	7916,	8659,	8328,	8605,	9467,	8811,	8581,	8639,	13.04,	14.65,	12.61,	11.57,	14.95,	2.79,	14.10,	13.30,	6.16,	12.18,	0.18,	0.71,	15.08,	14.79,	1645,	1666
19,	7617,	8584,	9398,	8513,	7814,	8444,	7926,	8649,	8306,	8455,	9491,	8845,	8606,	8659,	13.04,	14.65,	12.61,	11.57,	14.95,	2.79,	14.10,	13.30,	6.16,	12.18,	0.18,	0.71,	15.08,	14.79,	1646,	1664
20,	7669,	8592,	9448,	8507,	7807,	8435,	7947,	8675,	8356,	8421,	9583,	8927,	8672,	8716,	13.04,	14.65,	12.61,	11.57,	14.95,	2.79,	14.10,	13.30,	6.16,	12.18,	0.18,	0.71,	15.08,	14.79,	1650,	1660
21,	7732,	8581,	9497,	8503,	7834,	8437,	7936,	8668,	8361,	8607,	9607,	8962,	8673,	8729,	13.04,	14.65,	12.61,	11.57,	14.95,	2.79,	14.10,	13.30,	6.16,	12.18,	0.18,	0.71,	15.08,	14.79,	1651,	1653
22,	7754,	8569,	9497,	8506,	7768,	8435,	7908,	8617,	8286,	8539,	9553,	8942,	8617,	8692,	13.04,	14.65,	12.61,	11.57,	14.95,	2.79,	14.10,	13.30,	6.16,	12.18,	0.18,	0.71,	15.08,	14.79,	1656,	1646
23,	7746,	8579,	9517,	8533,	7771,	8453,	7910,	8598,	8272,	8352,	9537,	8942,	8600,	8672,	13.04,	14.65,	12.61,	11.57,	14.95,	2.79,	14.10,	13.30,	6.16,	12.18,	0.18,	0.71,	15.08,	14.79,	1660,	1638
24,	7746,	8599,	9578,	8576,	7849,	8456,	7931,	8608,	8300,	8465,	9567,	8969,	8616,	8674,	13.04,	14.65,	12.61,	11.57,	14.95,	2.79,	14.10,	13.30,	6.16,	12.18,	0.18,	0.71,	15.08,	14.79,	1663,	1637
25,	7743,	8616,	9594,	8606,	7761,	8402,	7922,	8586,	8256,	8568,	9535,	8961,	8577,	8654,	13.04,	14.65,	12.61,	11.57,	14.95,	2.79,	14.10,	13.30,	6.16,	12.18,	0.18,	0.71,	15.08,	14.79,	1669,	1636
26,	7727,	8616,	9576,	8620,	7733,	8383,	7890,	8543,	8195,	8375,	9446,	8916,	8519,	8617,	13.04,	14.65,	12.61,	11.57,	14.95,	2.79,	14.10,	13.30,	6.16,	12.18,	0.18,	0.71,	15.08,	14.79,	1669,	1639
27,	7725,	8600,	9576,	8618,	7867,	8415,	7898,	8537,	8215,	8258,	9415,	8891,	8519,	8603,	13.04,	14.65,	12.61,	11.57,	14.95,	2.79,	14.10,	13.30,	6.16,	12.18,	0.18,	0.71,	15.08,	14.79,	1674,	1639
28,	7742,	8605,	9591,	8627,	7853,	8395,	7939,	8557,	8230,	8379,	9418,	8879,	8532,	8603,	13.04,	14.65,	12.61,	11.57,	14.95,	2.79,	14.10,	13.30,	6.16,	12.18,	0.18,	0.71,	15.08,	14.79,	1676,	1639
29,	7728,	8612,	9573,	8632,	7786,	8378,	7938,	8555,	8191,	8421,	9347,	8812,	8486,	8555,	13.04,	14.65,	12.61,	11.57,	14.95,	2.79,	14.10,	13.30,	6.16,	12.18,	0.18,	0.71,	15.08,	14.79,	1676,	1639
30,	7699,	8586,	9528,	8607,	7792,	8415,	7913,	8550,	8191,	8342,	9274,	8732,	8450,	8491,	13.04,	14.65,	12.61,	11.57,	14.95,	2.79,	14.10,	13.30,	6.16,	12.18,	0.18,	0.71,	15.08,	14.79,	1676,	1641
31,	7713,	8571,	9519,	8591,	7742,	8412,	7931,	8573,	8223,	8348,	9301,	8724,	8489,	8503,	13.04,	14.65,	12.61,	11.57,	14.95,	2.79,	14.10,	13.30,	6.16,	12.18,	0.18,	0.71,	15.08,	14.79,	1675,	1649
32,	7736,	8572,	9509,	8583,	7744,	8384,	7965,	8607,	8236,	8334,	9315,	8724,	8516,	8540,	13.04,	14.65,	12.61,	11.57,	14.95,	2.79,	14.10,	13.30,	6.16,	12.18,	0.18,	0.71,	15.08,	14.79,	1671,	1660
33,	7727,	8560,	9472,	8566,	7820,	8392,	7970,	8603,	8231,	8288,	9274,	8689,	8501,	8534,	13.04,	14.65,	12.61,	11.57,	14.95,	2.79,	14.10,	13.30,	6.16,	12.18,	0.18,	0.71,	15.08,	14.79,	1668,	1674
34,	7729,	8564,	9448,	8563,	7729,	8370,	7961,	8547,	8204,	8386,	9284,	8685,	8497,	8526,	13.04,	14.65,	12.61,	11.57,	14.95,	2.79,	14.10,	13.30,	6.16,	12.18,	0.18,	0.71,	15.08,	14.79,	1665,	1683
35,	7742,	8582,	9435,	8568,	7704,	8350,	7972,	8525,	8182,	8416,	9320,	8710,	8510,	8537,	13.04,	14.65,	12.61,	11.57,	14.95,	2.79,	14.10,	13.30,	6.16,	12.18,	0.18,	0.71,	15.08,	14.79,	1660,	1693
36,	7729,	8565,	9401,	8565,	7881,	8385,	7980,	8562,	8181,	8300,	9289,	8695,	8495,	8522,	13.04,	14.65,	12.61,	11.57,	14.95,	2.79,	14.10,	13.30,	6.16,	12.18,	0.18,	0.71,	15.08,	14.79,	1658,	1698
37,	7722,	8543,	9346,	8552,	7841,	8400,	7974,	8574,	8178,	8294,	9261,	8667,	8464,	8503,	13.04,	14.65,	12.61,	11.57,	14.95,	2.79,	14.10,	13.30,	6.16,	12.18,	0.18,	0.71,	15.08,	14.79,	1655,	1708
38,	7737,	8551,	9287,	8542,	7744,	8382,	7997,	8556,	8177,	8275,	9281,	8680,	8460,	8519,	13.04,	14.65,	12.61,	11.57,	14.95,	2.79,	14.10,	13.30,	6.16,	12.18,	0.18,	0.71,	15.08,	14.79,	1657,	1713
39,	7749,	8573,	9247,	8555,	7808,	8363,	8021,	8569,	8203,	8260,	9310,	8719,	8481,	8537,	13.04,	14.65,	12.61,	11.57,	14.95,	2.79,	14.10,	13.30,	6.16,	12.18,	0.18,	0.71,	15.08,	14.79,	1655,	1715
40,	7765,	8592,	9230,	8577,	7786,	8337,	8003,	8604,	8235,	8461,	9367,	8765,	8508,	8550,	13.04,	14.65,	12.61,	11.57,	14.95,	2.79,	14.10,	13.30,	6.16,	12.18,	0.18,	0.71,	15.08,	14.79,	1656,	1715
41,	7758,	8578,	9186,	8558,	7733,	8353,	7986,	8620,	8220,	8443,	9376,	8765,	8496,	8543,	13.04,	14.65,	12.61,	11.57,	14.95,	2.79,	14.10,	13.30,	6.16,	12.18,	0.18,	0.71,	15.08,	14.79,	1654,	1713
42,	7742,	8542,	9137,	8526,	7797,	8413,	7988,	8618,	8210,	8184,	9314,	8721,	8467,	8514,	13.04,	14.65,	12.61,	11.57,	14.95,	2.79,	14.10,	13.30,	6.16,	12.18,	0.18,	0.71,	15.08,	14.79,	1651,	1708
43,	7766,	8549,	9155,	8547,	7804,	8403,	7964,	8609,	8246,	8272,	9310,	8715,	8477,	8510,	13.04,	14.65,	12.61,	11.57,	14.95,	2.79,	14.10,	13.30,	6.16,	12.18,	0.18,	0.71,	15.08,	14.79,	1646,	1701
44,	7783,	8556,	9192,	8572,	7787,	8341,	7934,	8585,	8236,	8454,	9378,	8738,	8494,	8517,	13.04,	14.65,	12.61,	11.57,	14.95,	2.79,	14.10,	13.30,	6.16,	12.18,	0.18,	0.71,	15.08,	14.79,	1641,	1696
45,	7767,	8532,	9218,	8557,	7858,	8346,	7938,	8562,	8172,	8375,	9399,	8737,	8478,	8506,	13.04,	14.65,	12.61,	11.57,	14.95,	2.79,	14.10,	13.30,	6.16,	12.18,	0.18,	0.71,	15.08,	14.79,	1634,	1691
46,	7762,	8546,	9273,	8556,	7833,	8379,	7943,	8575,	8174,	8329,	9363,	8738,	8464,	8511,	13.04,	14.65,	12.61,	11.57,	14.95,	2.79,	14.10,	13.30,	6.16,	12.18,	0.18,	0.71,	15.08,	14.79,	1627,	1690
47,	7768,	8585,	9340,	8574,	7711,	8371,	7931,	8585,	8220,	8367,	9354,	8757,	8484,	8540,	13.04,	14.65,	12.61,	11.57,	14.95,	2.79,	14.10,	13.30,	6.16,	12.18,	0.18,	0.71,	15.08,	14.79,	1621,	1687
48,	7747,	8584,	9377,	8570,	7761,	8363,	7918,	8559,	8202,	8312,	9361,	8753,	8501,	8550,	13.04,	14.65,	12.61,	11.57,	14.95,	2.79,	14.10,	13.30,	6.16,	12.18,	0.18,	0.71,	15.08,	14.79,	1614,	1689
49,	7706,	8565,	9388,	8554,	7915,	8397,	7894,	8547,	8177,	8303,	9349,	8732,	8490,	8539,	13.04,	14.65,	12.61,	11.57,	14.95,	2.79,	14.10,	13.30,	6.16,	12.18,	0.18,	0.71,	15.08,	14.79,	1611,	1688
50,	7689,	8556,	9397,	8552,	7843,	8417,	7871,	8559,	8210,	8421,	9308,	8719,	8463,	8544,	13.04,	14.65,	12.61,	11.57,	14.95,	2.79,	14.10,	13.30,	6.16,	12.18,	0.18,	0.71,	15.08,	14.79,	1607,	1686
51,	7710,	8564,	9417,	8559,	7701,	8377,	7886,	8586,	8238,	8455,	9310,	8732,	8477,	8580,	13.04,	14.65,	12.61,	11.57,	14.95,	2.79,	14.10,	13.30,	6.16,	12.18,	0.18,	0.71,	15.08,	14.79,	1608,	1685
52,	7736,	8589,	9441,	8574,	7813,	8354,	7915,	8623,	8249,	8404,	9379,	8763,	8537,	8621,	13.04,	14.65,	12.61,	11.57,	14.95,	2.79,	14.10,	13.30,	6.16,	12.18,	0.18,	0.71,	15.08,	14.79,	1610,	1682
53,	7735,	8584,	9430,	8569,	7903,	8401,	7914,	8616,	8259,	8463,	9424,	8774,	8562,	8623,	13.04,	14.65,	12.61,	11.57,	14.95,	2.79,	14.10,	13.30,	6.16,	12.18,	0.18,	0.71,	15.08,	14.79,	1614,	1678
54,	7725,	8557,	9383,	8530,	7777,	8432,	7898,	8586,	8248,	8531,	9437,	8756,	8554,	8608,	13.04,	14.65,	12.61,	11.57,	14.95,	2.79,	14.10,	13.30,	6.16,	12.18,	0.18,	0.71,	15.08,	14.79,	1619,	1672
55,	7732,	8546,	9361,	8515,	7776,	8411,	7900,	8600,	8223,	8472,	9428,	8731,	8545,	8603,	13.04,	14.65,	12.61,	11.57,	14.95,	2.79,	14.10,	13.30,	6.16,	12.18,	0.18,	0.71,	15.08,	14.79,	1624,	1671
56,	7743,	8556,	9365,	8541,	7884,	8411,	7918,	8636,	8246,	8463,	9424,	8727,	8537,	8603,	13.04,	14.65,	12.61,	11.57,	14.95,	2.79,	14.10,	13.30,	6.16,	12.18,	0.18,	0.71,	15.08,	14.79,	1631,	1673
57,	7757,	8569,	9376,	8551,	7852,	8426,	7932,	8646,	8284,	8549,	9456,	8739,	8547,	8619,	13.04,	14.65,	12.61,	11.57,	14.95,	2.79,	14.10,	13.30,	6.16,	12.18,	0.18,	0.71,	15.08,	14.79,	1638,	1679
58,	7769,	8565,	9377,	8531,	7751,	8416,	7922,	8637,	8265,	8535,	9481,	8737,	8559,	8630,	13.04,	14.65,	12.61,	11.57,	14.95,	2.79,	14.10,	13.30,	6.16,	12.18,	0.18,	0.71,	15.08,	14.79,	1642,	1675
59,	7766,	8557,	9353,	8518,	7758,	8415,	7905,	8629,	8249,	8459,	9461,	8727,	8550,	8620,	13.04,	14.65,	12.61,	11.57,	14.95,	2.79,	14.10,	13.30,	6.16,	12.18,	0.18,	0.71,	15.08,	14.79,	1645,	1666
60,	7770,	8570,	9339,	8540,	7879,	8408,	7919,	8624,	8260,	8456,	9431,	8716,	8527,	8606,	13.04,	14.65,	12.61,	11.57,	14.95,	2.79,	14.10,	13.30,	6.16,	12.18,	0.18,	0.71,	15.08,	14.79,	1646,	1658
61,	7784,	8582,	9343,	8561,	7883,	8384,	7946,	8630,	8257,	8458,	9435,	8692,	8517,	8593,	13.04,	14.65,	12.61,	11.57,	14.95,	2.79,	14.10,	13.30,	6.16,	12.18,	0.18,	0.71,	15.08,	14.79,	1648,	1652
62,	7780,	8572,	9318,	8536,	7748,	8398,	7954,	8654,	8255,	8471,	9451,	8673,	8517,	8573,	13.04,	14.65,	12.61,	11.57,	14.95,	2.79,	14.10,	13.30,	6.16,	12.18,	0.18,	0.71,	15.08,	14.79,	1649,	1646
63,	7765,	8564,	9269,	8513,	7773,	8426,	7948,	8666,	8257,	8457,	9452,	8657,	8512,	8546,	13.04,	14.65,	12.61,	11.57,	14.95,	2.79,	14.10,	13.30,	6.16,	12.18,	0.18,	0.71,	15.08,	14.79,	1650,	1643
64,	7760,	8556,	9250,	8521,	7889,	8436,	7941,	8623,	8236,	8411,	9430,	8632,	8496,	8523,	13.05,	14.65,	12.61,	11.57,	14.95,	2.79,	14.10,	13.30,	6.16,	12.18,	0.18,	0.71,	15.08,	14.79,	1651,	1642
65,	7781,	8555,	9268,	8535,	7849,	8440,	7936,	8572,	8218,	8510,	9447,	8629,	8490,	8512,	13.05,	14.64,	12.61,	11.57,	14.95,	2.79,	14.10,	13.30,	6.16,	12.18,	0.18,	0.71,	15.08,	14.79,	1652,	1646
66,	7819,	8584,	9299,	8546,	7761,	8411,	7933,	8588,	8219,	8543,	9503,	8670,	8524,	8535,	13.05,	14.64,	12.58,	11.57,	14.95,	2.79,	14.10,	13.30,	6.16,	12.18,	0.18,	0.71,	15.08,	14.79,	1655,	1647
67,	7845,	8606,	9324,	8556,	7807,	8384,	7930,	8604,	8218,	8376,	9499,	8695,	8554,	8566,	13.05,	14.64,	12.58,	11.59,	14.95,	2.79,	14.10,	13.30,	6.16,	12.18,	0.18,	0.71,	15.08,	14.79,	1654,	1653
68,	7863,	8605,	9330,	8560,	7871,	8411,	7945,	8575,	8220,	8400,	9469,	8682,	8548,	8579,	13.05,	14.64,	12.58,	11.59,	14.65,	2.79,	14.10,	13.30,	6.16,	12.18,	0.18,	0.71,	15.08,	14.79,	1659,	1654
69,	7887,	8604,	9311,	8561,	7853,	8443,	7970,	8582,	8227,	8570,	9476,	8677,	8548,	8581,	13.05,	14.64,	12.58,	11.59,	14.65,	2.81,	14.10,	13.30,	6.16,	12.18,	0.18,	0.71,	15.08,	14.79,	1658,	1647
70,	7915,	8616,	9289,	8573,	7849,	8426,	7974,	8611,	8217,	8498,	9496,	8692,	8578,	8579,	13.05,	14.64,	12.58,	11.59,	14.65,	2.81,	14.13,	13.32,	6.21,	12.74,	0.15,	0.59,	15.08,	14.80,	1661,	1638
71,	7941,	8624,	9280,	8580,	7868,	8405,	7959,	8607,	8211,	8373,	9509,	8701,	8592,	8578,	13.05,	14.64,	12.58,	11.59,	14.65,	2.81,	14.13,	13.32,	6.21,	12.74,	0.15,	0.59,	15.08,	14.80,	1661,	1627
72,	7964,	8618,	9259,	8575,	7806,	8399,	7971,	8614,	8224,	8486,	9506,	8689,	8567,	8572,	13.05,	14.64,	12.58,	11.59,	14.65,	2.81,	14.13,	13.32,	6.21,	12.74,	0.15,	0.59,	15.08,	14.80,	1661,	1618
73,	7980,	8609,	9214,	8558,	7764,	8416,	8004,	8631,	8226,	8553,	9479,	8672,	8544,	8557,	13.05,	14.64,	12.58,	11.59,	14.65,	2.81,	14.13,	13.32,	6.21,	12.74,	0.15,	0.59,	15.08,	14.80,	1662,	1607
74,	7973,	8593,	9161,	8532,	7832,	8455,	8001,	8584,	8189,	8409,	9417,	8638,	8520,	8530,	13.05,	14.64,	12.58,	11.59,	14.65,	2.81,	14.13,	13.32,	6.21,	12.74,	0.15,	0.59,	15.08,	14.80,	1661,	1600
75,	7975,	8574,	9146,	8517,	7841,	8457,	7984,	8553,	8167,	8335,	9370,	8605,	8489,	8515,	13.05,	14.64,	12.58,	11.59,	14.65,	2.81,	14.13,	13.32,	6.21,	12.74,	0.15,	0.59,	15.08,	14.80,	1661,	1595
76,	8005,	8574,	9187,	8529,	7796,	8413,	8001,	8596,	8210,	8518,	9409,	8638,	8517,	8544,	13.05,	14.64,	12.58,	11.59,	14.65,	2.81,	14.13,	13.32,	6.21,	12.74,	0.15,	0.59,	15.08,	14.80,	1658,	1595
77,	8037,	8595,	9233,	8547,	7801,	8384,	8009,	8616,	8240,	8632,	9484,	8691,	8593,	8588,	13.05,	14.64,	12.58,	11.59,	14.65,	2.81,	14.13,	13.32,	6.21,	12.74,	0.15,	0.59,	15.08,	14.80,	1657,	1594
78,	8061,	8617,	9277,	8554,	7758,	8387,	7998,	8615,	8225,	8420,	9476,	8700,	8622,	8611,	13.05,	14.64,	12.58,	11.59,	14.65,	2.81,	14.13,	13.32,	6.21,	12.74,	0.15,	0.59,	15.08,	14.80,	1653,	1597
79,	8075,	8614,	9304,	8557,	7774,	8402,	8008,	8626,	8214,	8388,	9408,	8675,	8582,	8606,	13.05,	14.64,	12.58,	11.59,	14.65,	2.81,	14.13,	13.32,	6.21,	12.74,	0.15,	0.59,	15.08,	14.80,	1651,	1602
80,	8071,	8602,	9299,	8560,	7873,	8404,	8027,	8611,	8206,	8599,	9396,	8665,	8557,	8596,	13.05,	14.64,	12.58,	11.59,	14.65,	2.81,	14.13,	13.32,	6.21,	12.74,	0.15,	0.59,	15.08,	14.80,	1647,	1605
81,	8079,	8603,	9281,	8547,	7790,	8396,	8042,	8606,	8204,	8515,	9442,	8683,	8594,	8603,	13.05,	14.64,	12.58,	11.59,	14.65,	2.81,	14.13,	13.32,	6.21,	12.74,	0.15,	0.59,	15.08,	14.80,	1645,	1609
82,	8109,	8604,	9251,	8529,	7682,	8406,	8050,	8641,	8208,	8396,	9450,	8696,	8613,	8613,	13.05,	14.64,	12.58,	11.59,	14.65,	2.81,	14.13,	13.32,	6.21,	12.74,	0.15,	0.59,	15.08,	14.80,	1646,	1609
83,	8111,	8598,	9203,	8530,	7768,	8410,	8040,	8629,	8193,	8457,	9402,	8678,	8580,	8593,	13.05,	14.64,	12.58,	11.59,	14.65,	2.81,	14.13,	13.32,	6.21,	12.74,	0.15,	0.59,	15.08,	14.80,	1646,	1612
84,	8100,	8586,	9156,	8537,	7813,	8386,	8054,	8581,	8178,	8473,	9372,	8653,	8560,	8571,	13.05,	14.64,	12.58,	11.59,	14.65,	2.81,	14.13,	13.32,	6.21,	12.74,	0.16,	0.59,	15.08,	14.80,	1648,	1615
85,	8106,	8577,	9117,	8525,	7718,	8379,	8087,	8602,	8187,	8500,	9389,	8671,	8574,	8589,	13.05,	14.64,	12.58,	11.59,	14.65,	2.81,	14.13,	13.32,	6.21,	12.74,	0.16,	0.59,	15.08,	14.80,	1650,	1617
86,	8107,	8585,	9073,	8519,	7752,	8391,	8091,	8642,	8184,	8476,	9390,	8701,	8581,	8616,	13.05,	14.64,	12.58,	11.59,	14.65,	2.81,	14.13,	13.32,	6.21,	12.74,	0.16,	0.61,	15.08,	14.80,	1652,	1616
87,	8096,	8585,	9041,	8530,	7866,	8405,	8077,	8614,	8177,	8375,	9340,	8689,	8563,	8618,	13.05,	14.64,	12.58,	11.59,	14.65,	2.81,	14.13,	13.32,	6.21,	12.74,	0.16,	0.61,	15.08,	14.80,	1653,	1613
88,	8084,	8566,	9022,	8526,	7830,	8414,	8087,	8587,	8183,	8496,	9316,	8671,	8551,	8623,	13.05,	14.64,	12.58,	11.59,	14.65,	2.81,	14.13,	13.32,	6.21,	12.74,	0.16,	0.61,	15.10,	14.80,	1655,	1609
89,	8082,	8577,	9024,	8525,	7717,	8392,	8107,	8629,	8167,	8601,	9339,	8681,	8559,	8648,	13.05,	14.64,	12.58,	11.59,	14.65,	2.81,	14.13,	13.32,	6.21,	12.74,	0.16,	0.61,	15.10,	14.80,	1654,	1607
90,	8091,	8611,	9047,	8539,	7683,	8362,	8120,	8670,	8160,	8379,	9352,	8705,	8587,	8665,	13.05,	14.64,	12.58,	11.59,	14.65,	2.81,	14.13,	13.32,	6.21,	12.74,	0.12,	0.61,	15.10,	14.80,	1655,	1611
91,	8095,	8602,	9049,	8535,	7742,	8391,	8135,	8665,	8196,	8361,	9358,	8722,	8607,	8675,	13.05,	14.64,	12.58,	11.59,	14.65,	2.81,	14.13,	13.32,	6.21,	12.74,	0.12,	0.64,	15.10,	14.80,	1654,	1617
92,	8100,	8571,	9062,	8525,	7751,	8422,	8150,	8672,	8213,	8581,	9387,	8730,	8599,	8689,	13.05,	14.64,	12.58,	11.59,	14.65,	2.81,	14.13,	13.32,	6.21,	12.74,	0.12,	0.64,	15.08,	14.80,	1655,	1625
93,	8096,	8576,	9085,	8537,	7706,	8406,	8158,	8667,	8158,	8483,	9388,	8721,	8584,	8701,	13.05,	14.64,	12.58,	11.59,	14.65,	2.81,	14.13,	13.32,	6.21,	12.74,	0.12,	0.64,	15.08,	14.79,	1659,	1631
94,	8092,	8583,	9082,	8545,	7749,	8420,	8171,	8632,	8125,	8335,	9376,	8717,	8595,	8726,	13.05,	14.64,	12.58,	11.59,	14.65,	2.81,	14.13,	13.32,	6.21,	12.74,	0.16,	0.64,	15.08,	14.79,	1662,	1635
95,	8115,	8575,	9076,	8541,	7817,	8437,	8179,	8642,	8162,	8476,	9420,	8729,	8625,	8770,	13.05,	14.64,	12.58,	11.59,	14.65,	2.81,	14.13,	13.32,	6.21,	12.74,	0.16,	0.64,	15.08,	14.79,	1669,	1632
96,	8134,	8577,	9052,	8547,	7754,	8408,	8175,	8665,	8165,	8580,	9430,	8713,	8612,	8780,	13.05,	14.64,	12.58,	11.59,	14.65,	2.81,	14.13,	13.32,	6.21,	12.74,	0.16,	0.64,	15.10,	14.79,	1671,	1625
97,	8139,	8580,	9002,	8542,	7656,	8397,	8183,	8652,	8132,	8458,	9374,	8681,	8580,	8752,	13.05,	14.64,	12.58,	11.59,	14.65,	2.81,	14.13,	13.32,	6.21,	12.74,	0.16,	0.64,	15.10,	14.80,	1675,	1619
98,	8166,	8580,	8962,	8531,	7721,	8413,	8190,	8653,	8137,	8389,	9381,	8693,	8601,	8753,	13.05,	14.64,	12.58,	11.59,	14.65,	2.81,	14.13,	13.32,	6.21,	12.74,	0.15,	0.64,	15.10,	14.80,	1675,	1620
99,	8205,	8595,	8953,	8547,	7771,	8395,	8178,	8657,	8135,	8441,	9431,	8727,	8635,	8765,	13.05,	14.64,	12.58,	11.59,	14.65,	2.81,	14.13,	13.32,	6.21,	12.74,	0.15,	0.62,	15.10,	14.80,	1676,	1628
100,	8224,	8613,	8966,	8563,	7656,	8376,	8184,	8651,	8131,	8477,	9426,	8732,	8631,	8759,	13.05,	14.64,	12.58,	11.59,	14.65,	2.81,	14.13,	13.32,	6.21,	12.74,	0.15,	0.62,	15.05,	14.80,	1673,	1645
101,	8236,	8602,	8984,	8552,	7683,	8406,	8209,	8666,	8167,	8469,	9422,	8725,	8632,	8750,	13.05,	14.64,	12.58,	11.59,	14.65,	2.81,	14.13,	13.32,	6.21,	12.74,	0.15,	0.62,	15.05,	14.77,	1672,	1666
102,	8241,	8579,	9001,	8539,	7829,	8430,	8217,	8661,	8163,	8430,	9439,	8728,	8649,	8737,	13.05,	14.64,	12.58,	11.59,	14.65,	2.81,	14.13,	13.32,	6.21,	12.74,	0.13,	0.62,	15.05,	14.77,	1670,	1678
103,	8234,	8582,	9012,	8536,	7716,	8404,	8214,	8634,	8114,	8442,	9410,	8725,	8634,	8719,	13.05,	14.64,	12.58,	11.59,	14.65,	2.81,	14.13,	13.32,	6.21,	12.74,	0.13,	0.62,	15.05,	14.77,	1665,	1688
104,	8253,	8607,	9010,	8540,	7580,	8370,	8208,	8652,	8118,	8464,	9396,	8739,	8637,	8721,	13.05,	14.64,	12.58,	11.59,	14.65,	2.81,	14.13,	13.32,	6.21,	12.74,	0.13,	0.62,	15.05,	14.77,	1663,	1691
105,	8286,	8612,	8964,	8550,	7721,	8380,	8208,	8680,	8147,	8432,	9416,	8769,	8662,	8732,	13.05,	14.64,	12.58,	11.59,	14.65,	2.81,	14.13,	13.32,	6.21,	12.74,	0.13,	0.62,	15.05,	14.76,	1659,	1693
106,	8293,	8603,	8871,	8547,	7792,	8402,	8206,	8659,	8131,	8407,	9395,	8768,	8644,	8718,	13.05,	14.64,	12.58,	11.59,	14.65,	2.81,	14.13,	13.32,	6.21,	12.74,	0.15,	0.62,	15.05,	14.76,	1657,	1690
107,	8298,	8611,	8789,	8541,	7679,	8381,	8180,	8622,	8106,	8450,	9373,	8767,	8611,	8697,	13.05,	14.64,	12.58,	11.59,	14.65,	2.81,	14.13,	13.32,	6.21,	12.74,	0.15,	0.59,	15.05,	14.76,	1654,	1691
108,	8321,	8613,	8745,	8530,	7669,	8353,	8176,	8648,	8142,	8493,	9392,	8785,	8611,	8700,	13.05,	14.64,	12.58,	11.59,	14.65,	2.81,	14.13,	13.32,	6.21,	12.74,	0.15,	0.59,	15.05,	14.76,	1654,	1693
109,	8334,	8603,	8741,	8521,	7732,	8363,	8183,	8699,	8172,	8458,	9377,	8776,	8603,	8701,	13.05,	14.64,	12.58,	11.59,	14.65,	2.81,	14.13,	13.32,	6.21,	12.74,	0.15,	0.59,	15.05,	14.80,	1653,	1694
110,	8334,	8613,	8772,	8531,	7699,	8371,	8146,	8667,	8142,	8419,	9347,	8754,	8586,	8689,	13.05,	14.64,	12.58,	11.59,	14.65,	2.81,	14.13,	13.32,	6.21,	12.74,	0.15,	0.59,	15.05,	14.80,	1653,	1692
111,	8334,	8615,	8821,	8540,	7717,	8373,	8112,	8619,	8136,	8378,	9368,	8757,	8592,	8688,	13.05,	14.64,	12.58,	11.59,	14.65,	2.81,	14.13,	13.32,	6.21,	12.74,	0.15,	0.59,	15.05,	14.80,	1650,	1686
112,	8342,	8595,	8870,	8532,	7764,	8380,	8119,	8651,	8157,	8370,	9386,	8761,	8606,	8696,	13.05,	14.64,	12.58,	11.59,	14.65,	2.81,	14.13,	13.32,	6.21,	12.74,	0.15,	0.59,	15.10,	14.80,	1640,	1670
113,	8362,	8616,	8923,	8534,	7640,	8363,	8103,	8676,	8141,	8461,	9378,	8759,	8623,	8699,	13.05,	14.64,	12.58,	11.59,	14.65,	2.81,	14.13,	13.32,	6.21,	12.74,	0.15,	0.59,	15.10,	14.80,	1633,	1663
114,	8382,	8646,	8965,	8548,	7580,	8339,	8072,	8635,	8114,	8488,	9370,	8754,	8621,	8700,	13.05,	14.64,	12.58,	11.59,	14.65,	2.81,	14.13,	13.32,	6.21,	12.74,	0.12,	0.59,	15.10,	14.80,	1627,	1659
115,	8391,	8625,	8972,	8535,	7716,	8346,	8066,	8620,	8123,	8363,	9348,	8736,	8607,	8695,	13.05,	14.64,	12.58,	11.59,	14.65,	2.81,	14.13,	13.32,	6.21,	12.74,	0.12,	0.62,	15.10,	14.80,	1619,	1657
116,	8406,	8600,	8981,	8514,	7727,	8370,	8058,	8633,	8136,	8367,	9319,	8722,	8619,	8690,	13.05,	14.64,	12.58,	11.59,	14.65,	2.81,	14.13,	13.32,	6.21,	12.74,	0.12,	0.62,	15.08,	14.80,	1615,	1655
117,	8423,	8610,	9012,	8517,	7605,	8371,	8045,	8631,	8144,	8515,	9325,	8734,	8636,	8691,	13.05,	14.64,	12.58,	11.59,	14.65,	2.81,	14.13,	13.32,	6.21,	12.74,	0.12,	0.62,	15.08,	14.77,	1611,	1655
118,	8432,	8623,	9035,	8529,	7645,	8357,	8053,	8628,	8161,	8450,	9346,	8751,	8650,	8705,	13.05,	14.64,	12.58,	11.59,	14.65,	2.81,	14.13,	13.32,	6.21,	12.74,	0.13,	0.62,	15.08,	14.77,	1610,	1654
119,	8448,	8632,	9056,	8536,	7687,	8357,	8065,	8643,	8154,	8315,	9357,	8761,	8686,	8729,	13.05,	14.64,	12.58,	11.59,	14.65,	2.81,	14.13,	13.32,	6.21,	12.74,	0.13,	0.61,	15.08,	14.77,	1609,	1653
120,	8451,	8640,	9053,	8534,	7601,	8375,	8061,	8661,	8134,	8411,	9363,	8765,	8699,	8729,	13.05,	14.64,	12.58,	11.59,	14.65,	2.81,	14.13,	13.32,	6.21,	12.74,	0.13,	0.61,	15.07,	14.77,	1612,	1649
121,	8436,	8632,	9014,	8529,	7620,	8377,	8049,	8660,	8135,	8581,	9346,	8747,	8664,	8701,	13.05,	14.64,	12.58,	11.59,	14.65,	2.81,	14.13,	13.32,	6.21,	12.74,	0.13,	0.61,	15.07,	14.77,	1614,	1644
122,	8444,	8628,	8985,	8530,	7682,	8361,	8045,	8652,	8158,	8591,	9329,	8725,	8655,	8696,	13.05,	14.64,	12.58,	11.59,	14.65,	2.81,	14.13,	13.32,	6.21,	12.74,	0.13,	0.61,	15.07,	14.77,	1617,	1641
123,	8474,	8651,	8972,	8534,	7657,	8383,	8057,	8653,	8153,	8466,	9347,	8741,	8690,	8734,	13.05,	14.64,	12.58,	11.59,	14.65,	2.81,	14.13,	13.32,	6.21,	12.74,	0.13,	0.61,	15.07,	14.77,	1621,	1636
124,	8478,	8666,	8964,	8540,	7649,	8410,	8065,	8659,	8133,	8445,	9373,	8771,	8710,	8760,	13.05,	14.64,	12.58,	11.59,	14.65,	2.81,	14.13,	13.32,	6.21,	12.74,	0.13,	0.61,	15.07,	14.77,	1624,	1633
125,	8441,	8657,	8946,	8543,	7652,	8397,	8055,	8656,	8146,	8533,	9358,	8754,	8694,	8738,	13.05,	14.64,	12.58,	11.59,	14.65,	2.81,	14.13,	13.32,	6.21,	12.74,	0.13,	0.61,	15.07,	14.80,	1630,	1628
126,	8420,	8655,	8931,	8539,	7676,	8393,	8058,	8672,	8176,	8523,	9353,	8731,	8685,	8723,	13.05,	14.64,	12.58,	11.59,	14.65,	2.81,	14.13,	13.32,	6.21,	12.74,	0.15,	0.61,	15.07,	14.80,	1632,	1621
127,	8442,	8668,	8947,	8539,	7681,	8410,	8077,	8718,	8215,	8507,	9405,	8758,	8718,	8756,	13.05,	14.64,	12.58,	11.59,	14.65,	2.81,	14.13,	13.32,	6.21,	12.74,	0.15,	0.61,	15.07,	14.80,	1635,	1617
0,	8435,	8659,	8965,	8548,	7687,	8415,	8065,	8667,	8167,	8478,	9379,	8731,	8689,	8730,	13.05,	14.64,	12.58,	11.59,	14.65,	2.81,	14.13,	13.32,	6.21,	12.74,	0.15,	0.61,	15.07,	14.80,	1638,	1611
1,	8433,	8661,	8967,	8549,	7677,	8425,	8067,	8653,	8151,	8445,	9353,	8713,	8672,	8719,	13.05,	14.68,	12.58,	11.59,	14.65,	2.81,	14.13,	13.32,	6.21,	12.74,	0.15,	0.61,	15.07,	14.80,	1638,	1610
2,	8448,	8670,	8996,	8560,	7588,	8409,	8066,	8677,	8193,	8475,	9386,	8731,	8704,	8754,	13.05,	14.68,	12.89,	11.59,	14.65,	2.81,	14.13,	13.32,	6.21,	12.74,	0.15,	0.61,	15.07,	14.80,	1639,	1610
3,	8454,	8669,	9015,	8554,	7624,	8404,	8072,	8678,	8203,	8497,	9390,	8735,	8705,	8764,	13.05,	14.68,	12.89,	11.56,	14.65,	2.81,	14.13,	13.32,	6.21,	12.74,	0.15,	0.61,	15.07,	14.80,	1641,	1611
4,	8449,	8663,	9017,	8551,	7753,	8417,	8083,	8675,	8186,	8513,	9369,	8723,	8683,	8747,	13.05,	14.68,	12.89,	11.56,	12.79,	2.81,	14.13,	13.32,	6.21,	12.74,	0.15,	0.61,	15.07,	14.80,	1642,	1617
5,	8455,	8668,	9022,	8557,	7692,	8405,	8089,	8686,	8203,	8494,	9395,	8730,	8706,	8754,	13.05,	14.68,	12.89,	11.56,	12.79,	2.80,	14.13,	13.32,	6.21,	12.74,	0.15,	0.61,	15.07,	14.80,	1644,	1623
6,	8468,	8675,	9025,	8547,	7561,	8396,	8110,	8707,	8232,	8457,	9414,	8741,	8730,	8764,	13.05,	14.68,	12.89,	11.56,	12.79,	2.80,	14.13,	13.32,	6.21,	12.74,	0.15,	0.61,	15.07,	14.80,	1644,	1634
7,	8467,	8670,	9010,	8542,	7626,	8418,	8128,	8715,	8229,	8477,	9376,	8725,	8697,	8739,	13.05,	14.68,	12.89,	11.56,	12.79,	2.80,	14.13,	13.27,	6.21,	12.74,	0.15,	0.61,	15.07,	14.80,	1647,	1645
8,	8449,	8663,	8964,	8546,	7701,	8428,	8106,	8674,	8187,	8479,	9340,	8693,	8649,	8692,	13.05,	14.68,	12.89,	11.56,	12.79,	2.80,	14.13,	13.27,	6.19,	12.74,	0.15,	0.61,	15.07,	14.80,	1648,	1654
9,	8435,	8659,	8919,	8527,	7653,	8408,	8091,	8639,	8165,	8458,	9353,	8680,	8649,	8674,	13.05,	14.68,	12.89,	11.56,	12.79,	2.80,	14.13,	13.27,	6.19,	12.96,	0.15,	0.61,	15.07,	14.80,	1652,	1663
10,	8444,	8663,	8904,	8523,	7610,	8383,	8117,	8671,	8194,	8405,	9363,	8699,	8670,	8692,	13.05,	14.68,	12.89,	11.56,	12.79,	2.80,	14.13,	13.27,	6.19,	12.96,	0.13,	0.61,	15.07,	14.80,	1655,	1669
11,	8464,	8670,	8876,	8540,	7686,	8372,	8136,	8693,	8208,	8337,	9334,	8706,	8657,	8696,	13.05,	14.68,	12.89,	11.56,	12.79,	2.80,	14.13,	13.27,	6.19,	12.96,	0.13,	0.59,	15.07,	14.80,	1658,	1671
12,	8458,	8662,	8803,	8525,	7734,	8383,	8135,	8647,	8178,	8415,	9304,	8678,	8627,	8660,	13.05,	14.68,	12.89,	11.56,	12.79,	2.80,	14.13,	13.27,	6.19,	12.96,	0.13,	0.59,	15.10,	14.80,	1661,	1675
13,	8447,	8660,	8748,	8512,	7639,	8378,	8129,	8618,	8170,	8475,	9300,	8674,	8619,	8638,	13.05,	14.68,	12.89,	11.56,	12.79,	2.80,	14.13,	13.27,	6.19,	12.96,	0.13,	0.59,	15.10,	14.77,	1663,	1679
14,	8447,	8675,	8732,	8523,	7586,	8346,	8119,	8629,	8183,	8341,	9295,	8691,	8621,	8642,	13.05,	14.68,	12.89,	11.56,	12.79,	2.80,	14.13,	13.27,	6.19,	12.96,	0.16,	0.59,	15.10,	14.77,	1664,	1678
15,	8423,	8661,	8704,	8515,	7694,	8337,	8112,	8601,	8161,	8240,	9255,	8659,	8591,	8619,	13.05,	14.68,	12.89,	11.56,	12.79,	2.80,	14.13,	13.27,	6.19,	12.96,	0.16,	0.59,	15.10,	14.77,	1663,	1675
16,	8388,	8628,	8686,	8494,	7750,	8353,	8128,	8577,	8157,	8319,	9250,	8635,	8578,	8592,	13.05,	14.68,	12.89,	11.56,	12.79,	2.80,	14.13,	13.27,	6.19,	12.96,	0.16,	0.59,	15.10,	14.77,	1663,	1668
17,	8379,	8634,	8715,	8490,	7628,	8351,	8144,	8603,	8187,	8384,	9304,	8672,	8604,	8602,	13.05,	14.68,	12.89,	11.56,	12.79,	2.80,	14.13,	13.27,	6.19,	12.96,	0.16,	0.59,	15.10,	14.77,	1661,	1662
18,	8376,	8668,	8745,	8503,	7560,	8340,	8144,	8603,	8170,	8319,	9324,	8690,	8610,	8608,	13.05,	14.68,	12.89,	11.56,	12.79,	2.80,	14.13,	13.27,	6.19,	12.96,	0.16,	0.59,	15.10,	14.77,	1656,	1657
19,	8349,	8672,	8736,	8499,	7640,	8350,	8155,	8566,	8131,	8258,	9281,	8666,	8582,	8588,	13.05,	14.68,	12.89,	11.56,	12.79,	2.80,	14.13,	13.27,	6.19,	12.96,	0.16,	0.59,	15.10,	14.77,	1651,	1654
20,	8306,	8632,	8719,	8468,	7718,	8375,	8186,	8565,	8141,	8291,	9234,	8643,	8541,	8556,	13.05,	14.68,	12.89,	11.56,	12.79,	2.80,	14.13,	13.27,	6.19,	12.96,	0.16,	0.59,	15.10,	14.77,	1645,	1659
21,	8272,	8608,	8729,	8448,	7674,	8376,	8201,	8576,	8151,	8280,	9235,	8620,	8517,	8531,	13.05,	14.68,	12.89,	11.56,	12.79,	2.80,	14.13,	13.27,	6.19,	12.96,	0.16,	0.59,	15.10,	14.77,	1638,	1666
22,	8262,	8625,	8756,	8462,	7563,	8354,	8190,	8579,	8145,	8194,	9292,	8623,	8543,	8535,	13.05,	14.68,	12.89,	11.56,	12.79,	2.80,	14.13,	13.27,	6.19,	12.96,	0.16,	0.59,	15.10,	14.77,	1634,	1678
23,	8258,	8641,	8785,	8476,	7589,	8347,	8187,	8605,	8180,	8280,	9351,	8646,	8579,	8551,	13.05,	14.68,	12.89,	11.56,	12.79,	2.80,	14.13,	13.27,	6.19,	12.96,	0.16,	0.59,	15.10,	14.77,	1631,	1686
24,	8245,	8643,	8804,	8476,	7712,	8335,	8206,	8613,	8197,	8412,	9365,	8644,	8567,	8547,	13.05,	14.68,	12.89,	11.56,	12.79,	2.80,	14.13,	13.27,	6.19,	12.96,	0.16,	0.59,	15.10,	14.77,	1631,	1689
25,	8228,	8639,	8784,	8470,	7703,	8312,	8216,	8587,	8151,	8321,	9364,	8638,	8546,	8533,	13.05,	14.68,	12.89,	11.56,	12.79,	2.80,	14.13,	13.27,	6.19,	12.96,	0.16,	0.59,	15.10,	14.77,	1634,	1681
26,	8200,	8613,	8713,	8449,	7612,	8322,	8209,	8571,	8113,	8231,	9369,	8635,	8536,	8516,	13.05,	14.68,	12.89,	11.56,	12.79,	2.80,	14.13,	13.27,	6.19,	12.96,	0.16,	0.59,	15.10,	14.77,	1637,	1665
27,	8175,	8607,	8629,	8436,	7630,	8330,	8209,	8576,	8140,	8271,	9344,	8608,	8506,	8492,	13.05,	14.68,	12.89,	11.56,	12.79,	2.80,	14.13,	13.27,	6.19,	12.96,	0.16,	0.59,	15.10,	14.77,	1644,	1647
28,	8176,	8627,	8550,	8437,	7680,	8319,	8229,	8583,	8169,	8307,	9322,	8595,	8485,	8480,	13.05,	14.68,	12.89,	11.56,	12.79,	2.80,	14.13,	13.27,	6.19,	12.96,	0.16,	0.59,	15.10,	14.77,	1646,	1636
29,	8199,	8624,	8499,	8441,	7671,	8333,	8228,	8558,	8143,	8311,	9334,	8612,	8497,	8487,	13.05,	14.68,	12.89,	11.56,	12.79,	2.80,	14.13,	13.27,	6.19,	12.96,	0.16,	0.59,	15.10,	14.77,	1652,	1633
30,	8222,	8619,	8515,	8453,	7658,	8340,	8202,	8522,	8125,	8275,	9353,	8630,	8509,	8500,	13.05,	14.68,	12.89,	11.56,	12.79,	2.80,	14.13,	13.27,	6.19,	12.96,	0.16,	0.59,	15.10,	14.77,	1655,	1633
31,	8227,	8639,	8570,	8458,	7663,	8318,	8192,	8536,	8153,	8247,	9367,	8632,	8517,	8504,	13.05,	14.68,	12.89,	11.56,	12.79,	2.80,	14.13,	13.27,	6.19,	12.96,	0.16,	0.59,	15.10,	14.77,	1662,	1632
32,	8231,	8642,	8660,	8457,	7682,	8314,	8199,	8575,	8181,	8300,	9376,	8629,	8528,	8496,	13.05,	14.68,	12.89,	11.56,	12.79,	2.80,	14.13,	13.27,	6.19,	12.96,	0.16,	0.59,	15.10,	14.77,	1666,	1622
33,	8241,	8632,	8772,	8457,	7690,	8314,	8188,	8576,	8176,	8309,	9385,	8635,	8546,	8504,	13.05,	14.68,	12.89,	11.56,	12.79,	2.80,	14.13,	13.27,	6.19,	12.96,	0.16,	0.59,	15.10,	14.77,	1669,	1613
34,	8240,	8637,	8837,	8454,	7652,	8307,	8170,	8550,	8160,	8228,	9375,	8630,	8548,	8502,	13.05,	14.68,	12.89,	11.56,	12.79,	2.80,	14.13,	13.27,	6.19,	12.96,	0.16,	0.59,	15.10,	14.77,	1670,	1604
35,	8232,	8636,	8849,	8444,	7652,	8313,	8172,	8539,	8155,	8251,	9356,	8612,	8532,	8476,	13.05,	14.68,	12.89,	11.56,	12.79,	2.80,	14.13,	13.27,	6.19,	12.96,	0.16,	0.59,	15.10,	14.77,	1668,	1604
36,	8235,	8630,	8849,	8433,	7690,	8300,	8190,	8552,	8160,	8306,	9359,	8612,	8541,	8477,	13.05,	14.68,	12.89,	11.56,	12.79,	2.80,	14.13,	13.27,	6.19,	12.96,	0.16,	0.59,	15.10,	14.77,	1668,	1605
37,	8257,	8629,	8858,	8432,	7663,	8274,	8208,	8556,	8163,	8246,	9351,	8621,	8555,	8494,	13.05,	14.68,	12.89,	11.56,	12.79,	2.80,	14.13,	13.27,	6.19,	12.96,	0.16,	0.59,	15.10,	14.77,	1666,	1606
38,	8271,	8615,	8870,	8429,	7626,	8284,	8215,	8534,	8155,	8247,	9314,	8608,	8529,	8477,	13.05,	14.68,	12.89,	11.56,	12.79,	2.80,	14.13,	13.27,	6.19,	12.96,	0.16,	0.59,	15.10,	14.77,	1671,	1602
39,	8257,	8599,	8870,	8416,	7642,	8300,	8230,	8524,	8139,	8271,	9287,	8580,	8496,	8447,	13.05,	14.68,	12.89,	11.56,	12.79,	2.80,	14.13,	13.27,	6.19,	12.96,	0.16,	0.59,	15.10,	14.77,	1677,	1601
40,	8251,	8603,	8859,	8403,	7617,	8288,	8245,	8524,	8107,	8146,	9277,	8556,	8491,	8434,	13.05,	14.68,	12.89,	11.56,	12.79,	2.80,	14.13,	13.27,	6.19,	12.96,	0.16,	0.59,	15.10,	14.77,	1680,	1604
41,	8264,	8605,	8830,	8400,	7623,	8279,	8239,	8516,	8090,	8118,	9254,	8546,	8486,	8423,	13.05,	14.68,	12.89,	11.56,	12.79,	2.80,	14.13,	13.27,	6.19,	12.96,	0.16,	0.59,	15.10,	14.77,	1681,	1614
42,	8285,	8584,	8784,	8387,	7689,	8292,	8235,	8515,	8103,	8253,	9235,	8537,	8467,	8403,	13.05,	14.68,	12.89,	11.56,	12.79,	2.80,	14.13,	13.27,	6.19,	12.96,	0.16,	0.59,	15.10,	14.77,	1678,	1627
43,	8297,	8569,	8745,	8373,	7625,	8286,	8237,	8508,	8108,	8250,	9230,	8516,	8448,	8382,	13.05,	14.68,	12.89,	11.56,	12.79,	2.80,	14.13,	13.27,	6.19,	12.96,	0.16,	0.59,	15.10,	14.77,	1672,	1644
44,	8304,	8578,	8735,	8377,	7551,	8262,	8240,	8501,	8101,	8127,	9232,	8513,	8455,	8373,	13.05,	14.68,	12.89,	11.56,	12.79,	2.80,	14.13,	13.27,	6.19,	12.96,	0.16,	0.59,	15.10,	14.77,	1663,	1659
45,	8317,	8568,	8744,	8375,	7631,	8276,	8263,	8527,	8106,	8108,	9235,	8528,	8473,	8367,	13.05,	14.68,	12.89,	11.56,	12.79,	2.80,	14.13,	13.27,	6.19,	12.96,	0.16,	0.59,	15.10,	14.77,	1652,	1674
46,	8318,	8546,	8737,	8363,	7686,	8301,	8278,	8532,	8101,	8156,	9223,	8518,	8454,	8343,	13.05,	14.68,	12.89,	11.56,	12.79,	2.80,	14.13,	13.27,	6.19,	12.96,	0.16,	0.59,	15.10,	14.77,	1646,	1681
47,	8313,	8555,	8707,	8361,	7638,	8287,	8265,	8501,	8094,	8164,	9221,	8514,	8430,	8333,	13.05,	14.68,	12.89,	11.56,	12.79,	2.80,	14.13,	13.27,	6.19,	12.96,	0.16,	0.59,	15.10,	14.77,	1640,	1687
48,	8312,	8553,	8635,	8344,	7575,	8277,	8256,	8500,	8100,	8125,	9227,	8522,	8434,	8334,	13.05,	14.68,	12.89,	11.56,	12.79,	2.80,	14.13,	13.27,	6.19,	12.96,	0.16,	0.59,	15.10,	14.77,	1641,	1691
49,	8305,	8528,	8521,	8322,	7605,	8291,	8244,	8498,	8093,	8103,	9201,	8502,	8420,	8303,	13.05,	14.68,	12.89,	11.56,	12.79,	2.80,	14.13,	13.27,	6.19,	12.96,	0.16,	0.59,	15.10,	14.77,	1642,	1696
50,	8303,	8548,	8434,	8354,	7710,	8284,	8221,	8482,	8098,	8194,	9185,	8492,	8394,	8283,	13.05,	14.68,	12.89,	11.56,	12.79,	2.80,	14.13,	13.27,	6.19,	12.96,	0.16,	0.59,	15.10,	14.77,	1644,	1705
51,	8323,	8599,	8397,	8397,	7749,	8271,	8215,	8510,	8136,	8242,	9210,	8514,	8410,	8310,	13.05,	14.68,	12.89,	11.56,	12.79,	2.80,	14.13,	13.27,	6.19,	12.96,	0.16,	0.59,	15.10,	14.77,	1648,	1707
52,	8340,	8608,	8384,	8390,	7636,	8280,	8197,	8542,	8176,	8171,	9223,	8524,	8437,	8327,	13.05,	14.68,	12.89,	11.56,	12.79,	2.80,	14.13,	13.27,	6.19,	12.96,	0.16,	0.59,	15.10,	14.77,	1646,	1705
53,	8329,	8580,	8383,	8368,	7603,	8286,	8158,	8522,	8186,	8169,	9208,	8512,	8430,	8301,	13.05,	14.68,	12.89,	11.56,	12.79,	2.80,	14.13,	13.27,	6.19,	12.96,	0.16,	0.59,	15.10,	14.77,	1646,	1698
54,	8314,	8563,	8407,	8362,	7728,	8292,	8129,	8513,	8171,	8199,	9194,	8486,	8401,	8276,	13.05,	14.68,	12.89,	11.56,	12.79,	2.80,	14.13,	13.27,	6.19,	12.96,	0.16,	0.59,	15.10,	14.77,	1645,	1690
55,	8314,	8571,	8452,	8375,	7749,	8294,	8113,	8536,	8161,	8154,	9170,	8459,	8380,	8274,	13.05,	14.68,	12.89,	11.56,	12.79,	2.80,	14.13,	13.27,	6.19,	12.96,	0.16,	0.59,	15.10,	14.77,	1642,	1679
56,	8319,	8573,	8492,	8380,	7656,	8285,	8096,	8531,	8171,	8143,	9157,	8458,	8375,	8270,	13.05,	14.68,	12.89,	11.56,	12.79,	2.80,	14.13,	13.27,	6.19,	12.96,	0.16,	0.59,	15.10,	14.77,	1636,	1672
57,	8309,	8551,	8517,	8362,	7631,	8293,	8055,	8467,	8153,	8190,	9170,	8465,	8373,	8254,	13.05,	14.68,	12.89,	11.56,	12.79,	2.80,	14.13,	13.27,	6.19,	12.96,	0.16,	0.59,	15.10,	14.77,	1634,	1672
58,	8304,	8554,	8560,	8370,	7651,	8305,	8000,	8419,	8125,	8183,	9171,	8461,	8374,	8255,	13.05,	14.68,	12.89,	11.56,	12.79,	2.80,	14.13,	13.27,	6.19,	12.96,	0.16,	0.59,	15.10,	14.77,	1630,	1677
59,	8329,	8590,	8635,	8405,	7671,	8282,	7979,	8464,	8165,	8181,	9173,	8480,	8396,	8284,	13.05,	14.68,	12.89,	11.56,	12.79,	2.80,	14.13,	13.27,	6.19,	12.96,	0.16,	0.59,	15.10,	14.77,	1629,	1686
60,	8340,	8587,	8686,	8394,	7746,	8271,	7992,	8524,	8216,	8239,	9197,	8500,	8418,	8295,	13.05,	14.68,	12.89,	11.56,	12.79,	2.80,	14.13,	13.27,	6.19,	12.96,	0.16,	0.59,	15.10,	14.77,	1627,	1696
61,	8314,	8546,	8700,	8358,	7716,	8304,	7975,	8520,	8196,	8215,	9169,	8461,	8399,	8264,	13.05,	14.68,	12.89,	11.56,	12.79,	2.80,	14.13,	13.27,	6.19,	12.96,	0.16,	0.59,	15.10,	14.77,	1630,	1705
62,	8307,	8550,	8739,	8360,	7579,	8309,	7939,	8504,	8170,	8136,	9112,	8424,	8364,	8237,	13.05,	14.68,	12.89,	11.56,	12.79,	2.80,	14.13,	13.27,	6.19,	12.96,	0.16,	0.59,	15.10,	14.77,	1635,	1707
63,	8342,	8586,	8793,	8374,	7633,	8289,	7945,	8560,	8231,	8195,	9140,	8451,	8384,	8261,	13.05,	14.68,	12.89,	11.56,	12.79,	2.80,	14.13,	13.27,	6.19,	12.96,	0.16,	0.59,	15.10,	14.77,	1639,	1710
64,	8368,	8569,	8787,	8350,	7752,	8324,	7980,	8629,	8291,	8327,	9187,	8468,	8425,	8289,	13.04,	14.68,	12.89,	11.56,	12.79,	2.80,	14.13,	13.27,	6.19,	12.96,	0.16,	0.59,	15.10,	14.77,	1646,	1706
65,	8369,	8546,	8732,	8339,	7683,	8359,	7970,	8586,	8247,	8287,	9160,	8437,	8409,	8269,	13.04,	14.67,	12.89,	11.56,	12.79,	2.80,	14.13,	13.27,	6.19,	12.96,	0.16,	0.59,	15.10,	14.77,	1650,	1698
66,	8383,	8583,	8708,	8383,	7640,	8331,	7913,	8500,	8198,	8183,	9133,	8436,	8373,	8248,	13.04,	14.67,	12.87,	11.56,	12.79,	2.80,	14.13,	13.27,	6.19,	12.96,	0.16,	0.59,	15.10,	14.77,	1653,	1688
67,	8419,	8616,	8720,	8425,	7723,	8309,	7892,	8506,	8234,	8227,	9137,	8478,	8376,	8263,	13.04,	14.67,	12.87,	11.56,	12.79,	2.80,	14.13,	13.27,	6.19,	12.96,	0.16,	0.59,	15.10,	14.77,	1654,	1677
68,	8436,	8602,	8719,	8424,	7730,	8317,	7897,	8522,	8262,	8248,	9119,	8497,	8381,	8269,	13.04,	14.67,	12.87,	11.56,	14.41,	2.80,	14.13,	13.27,	6.19,	12.96,	0.16,	0.59,	15.10,	14.77,	1655,	1666
69,	8430,	8596,	8735,	8414,	7681,	8303,	7868,	8469,	8244,	8174,	9079,	8487,	8351,	8250,	13.04,	14.67,	12.87,	11.56,	14.41,	2.79,	14.13,	13.27,	6.19,	12.96,	0.16,	0.59,	15.10,	14.77,	1653,	1654
70,	8423,	8604,	8797,	8416,	7697,	8290,	7848,	8462,	8244,	8182,	9059,	8470,	8330,	8246,	13.04,	14.67,	12.87,	11.56,	14.41,	2.79,	14.10,	13.27,	6.19,	12.96,	0.16,	0.59,	15.10,	14.77,	1654,	1644
71,	8419,	8604,	8870,	8426,	7704,	8292,	7870,	8508,	8260,	8242,	9065,	8454,	8343,	8253,	13.04,	14.67,	12.87,	11.56,	14.41,	2.79,	14.10,	13.30,	6.19,	12.96,	0.16,	0.59,	15.10,	14.77,	1652,	1633
72,	8418,	8607,	8920,	8434,	7662,	8286,	7883,	8509,	8257,	8235,	9051,	8435,	8337,	8235,	13.04,	14.67,	12.87,	11.56,	14.41,	2.79,	14.10,	13.30,	6.21,	12.96,	0.16,	0.59,	15.10,	14.77,	1650,	1626
73,	8403,	8609,	8944,	8413,	7624,	8291,	7870,	8481,	8231,	8147,	8992,	8410,	8298,	8215,	13.04,	14.67,	12.87,	11.56,	14.41,	2.79,	14.10,	13.30,	6.21,	12.95,	0.16,	0.59,	15.10,	14.77,	1650,	1619
74,	8383,	8602,	8959,	8396,	7671,	8308,	7873,	8467,	8216,	8065,	8943,	8383,	8277,	8213,	13.04,	14.67,	12.87,	11.56,	14.41,	2.79,	14.10,	13.30,	6.21,	12.95,	0.07,	0.59,	15.10,	14.77,	1647,	1617
75,	8375,	8590,	8969,	8396,	7734,	8306,	7893,	8471,	8226,	8078,	8929,	8355,	8272,	8215,	13.04,	14.67,	12.87,	11.56,	14.41,	2.79,	14.10,	13.30,	6.21,	12.95,	0.07,	0.61,	15.10,	14.77,	1645,	1616
76,	8371,	8582,	8966,	8376,	7664,	8292,	7904,	8478,	8214,	8139,	8905,	8337,	8247,	8208,	13.04,	14.67,	12.87,	11.56,	14.41,	2.79,	14.10,	13.30,	6.21,	12.95,	0.07,	0.61,	14.93,	14.77,	1640,	1619
77,	8384,	8591,	8955,	8369,	7578,	8282,	7916,	8471,	8192,	8084,	8897,	8343,	8248,	8208,	13.04,	14.67,	12.87,	11.56,	14.41,	2.79,	14.10,	13.30,	6.21,	12.95,	0.07,	0.61,	14.93,	14.76,	1637,	1623
78,	8391,	8585,	8926,	8372,	7623,	8274,	7945,	8449,	8179,	7977,	8904,	8339,	8267,	8207,	13.04,	14.67,	12.87,	11.56,	14.41,	2.79,	14.10,	13.30,	6.21,	12.95,	0.07,	0.61,	14.93,	14.76,	1632,	1627
79,	8363,	8546,	8868,	8338,	7679,	8283,	7962,	8432,	8154,	7989,	8842,	8288,	8210,	8166,	13.04,	14.67,	12.87,	11.56,	14.41,	2.79,	14.10,	13.30,	6.21,	12.95,	0.07,	0.62,	14.93,	14.76,	1629,	1630
80,	8344,	8521,	8815,	8307,	7659,	8287,	7963,	8434,	8152,	8055,	8787,	8253,	8159,	8138,	13.04,	14.67,	12.87,	11.56,	14.41,	2.79,	14.10,	13.30,	6.21,	12.95,	0.07,	0.62,	14.98,	14.76,	1625,	1633
81,	8371,	8543,	8803,	8327,	7605,	8262,	7970,	8447,	8191,	8062,	8840,	8294,	8220,	8179,	13.04,	14.67,	12.87,	11.56,	14.41,	2.79,	14.10,	13.30,	6.21,	12.95,	0.07,	0.62,	14.98,	14.79,	1624,	1636
82,	8393,	8550,	8774,	8335,	7593,	8240,	7962,	8441,	8199,	8043,	8879,	8328,	8264,	8212,	13.04,	14.67,	12.87,	11.56,	14.41,	2.79,	14.10,	13.30,	6.21,	12.95,	0.09,	0.62,	14.98,	14.79,	1625,	1638
83,	8389,	8525,	8710,	8312,	7647,	8244,	7942,	8424,	8181,	8074,	8841,	8314,	8220,	8192,	13.04,	14.67,	12.87,	11.56,	14.41,	2.79,	14.10,	13.30,	6.21,	12.95,	0.09,	0.62,	14.98,	14.79,	1626,	1646
84,	8397,	8531,	8674,	8318,	7682,	8253,	7949,	8424,	8186,	8091,	8830,	8306,	8209,	8179,	13.04,	14.67,	12.87,	11.56,	14.41,	2.79,	14.10,	13.30,	6.21,	12.95,	0.09,	0.62,	14.95,	14.79,	1632,	1659
85,	8409,	8557,	8661,	8335,	7635,	8251,	7974,	8438,	8187,	8037,	8845,	8310,	8238,	8183,	13.04,	14.67,	12.87,	11.56,	14.41,	2.79,	14.10,	13.30,	6.21,	12.95,	0.09,	0.62,	14.95,	14.79,	1635,	1675
86,	8400,	8536,	8617,	8322,	7617,	8254,	7978,	8453,	8201,	8035,	8815,	8290,	8226,	8161,	13.04,	14.67,	12.87,	11.56,	14.41,	2.79,	14.10,	13.30,	6.21,	12.95,	0.09,	0.62,	14.95,	14.79,	1642,	1687
87,	8392,	8512,	8571,	8300,	7640,	8259,	7971,	8452,	8239,	8107,	8786,	8260,	8211,	8138,	13.04,	14.67,	12.87,	11.56,	14.41,	2.79,	14.10,	13.30,	6.21,	12.95,	0.09,	0.64,	14.95,	14.79,	1646,	1692
88,	8403,	8527,	8550,	8301,	7642,	8256,	7977,	8452,	8253,	8120,	8787,	8252,	8222,	8142,	13.04,	14.67,	12.87,	11.56,	14.41,	2.79,	14.10,	13.30,	6.21,	12.95,	0.09,	0.64,	14.95,	14.79,	1649,	1689
89,	8404,	8525,	8526,	8298,	7608,	8258,	7991,	8481,	8240,	8079,	8790,	8264,	8222,	8148,	13.04,	14.67,	12.87,	11.56,	14.41,	2.79,	14.10,	13.30,	6.21,	12.95,	0.09,	0.64,	14.95,	14.80,	1652,	1674
90,	8396,	8503,	8497,	8291,	7591,	8265,	7994,	8487,	8216,	8065,	8790,	8278,	8215,	8150,	13.04,	14.67,	12.87,	11.56,	14.41,	2.79,	14.10,	13.30,	6.21,	12.95,	0.09,	0.64,	14.95,	14.80,	1655,	1654
91,	8400,	8510,	8464,	8303,	7668,	8252,	7972,	8437,	8196,	8050,	8788,	8281,	8222,	8154,	13.04,	14.67,	12.87,	11.56,	14.41,	2.79,	14.10,	13.30,	6.21,	12.95,	0.09,	0.59,	14.95,	14.80,	1657,	1636
92,	8392,	8516,	8426,	8304,	7709,	8231,	7947,	8397,	8189,	8017,	8769,	8273,	8214,	8143,	13.04,	14.67,	12.87,	11.56,	14.41,	2.79,	14.10,	13.30,	6.21,	12.95,	0.09,	0.59,	14.98,	14.80,	1659,	1628
93,	8354,	8488,	8406,	8274,	7630,	8247,	7948,	8403,	8187,	7989,	8714,	8242,	8163,	8099,	13.04,	14.67,	12.87,	11.56,	14.41,	2.79,	14.10,	13.30,	6.21,	12.95,	0.09,	0.59,	14.98,	14.76,	1658,	1627
94,	8316,	8464,	8435,	8242,	7604,	8277,	7953,	8404,	8180,	7983,	8657,	8201,	8114,	8059,	13.04,	14.67,	12.87,	11.56,	14.41,	2.79,	14.10,	13.30,	6.21,	12.95,	0.07,	0.59,	14.98,	14.76,	1653,	1632
95,	8305,	8464,	8535,	8239,	7629,	8268,	7941,	8406,	8194,	8011,	8662,	8185,	8117,	8062,	13.04,	14.67,	12.87,	11.56,	14.41,	2.79,	14.10,	13.30,	6.21,	12.95,	0.07,	0.61,	14.98,	14.76,	1646,	1626
96,	8307,	8464,	8648,	8244,	7561,	8224,	7930,	8438,	8221,	7997,	8706,	8196,	8149,	8076,	13.04,	14.67,	12.87,	11.56,	14.41,	2.79,	14.10,	13.30,	6.21,	12.95,	0.07,	0.61,	14.96,	14.76,	1640,	1616
97,	8305,	8461,	8703,	8242,	7502,	8195,	7925,	8438,	8200,	7943,	8697,	8198,	8147,	8074,	13.04,	14.67,	12.87,	11.56,	14.41,	2.79,	14.10,	13.30,	6.21,	12.95,	0.07,	0.61,	14.96,	14.77,	1635,	1608
98,	8297,	8452,	8694,	8234,	7578,	8214,	7912,	8393,	8152,	7958,	8642,	8173,	8101,	8049,	13.04,	14.67,	12.87,	11.56,	14.41,	2.79,	14.10,	13.30,	6.21,	12.95,	0.06,	0.61,	14.96,	14.77,	1632,	1606
99,	8290,	8435,	8655,	8215,	7628,	8233,	7904,	8388,	8159,	7994,	8641,	8168,	8088,	8044,	13.04,	14.67,	12.87,	11.56,	14.41,	2.79,	14.10,	13.30,	6.21,	12.95,	0.06,	0.59,	14.96,	14.77,	1630,	1613
100,	8299,	8433,	8611,	8219,	7593,	8204,	7905,	8407,	8177,	7958,	8666,	8187,	8104,	8063,	13.04,	14.67,	12.87,	11.56,	14.41,	2.79,	14.10,	13.30,	6.21,	12.95,	0.06,	0.59,	14.95,	14.77,	1631,	1619
101,	8311,	8447,	8564,	8232,	7593,	8178,	7904,	8378,	8143,	7923,	8641,	8178,	8090,	8065,	13.04,	14.67,	12.87,	11.56,	14.41,	2.79,	14.10,	13.30,	6.21,	12.95,	0.06,	0.59,	14.95,	14.76,	1634,	1623
102,	8306,	8445,	8528,	8225,	7603,	8186,	7898,	8350,	8125,	7914,	8616,	8167,	8080,	8058,	13.04,	14.67,	12.87,	11.56,	14.41,	2.79,	14.10,	13.30,	6.21,	12.95,	0.09,	0.59,	14.95,	14.76,	1637,	1631
103,	8306,	8439,	8525,	8218,	7583,	8193,	7895,	8376,	8164,	7926,	8641,	8188,	8101,	8066,	13.04,	14.67,	12.87,	11.56,	14.41,	2.79,	14.10,	13.30,	6.21,	12.95,	0.09,	0.64,	14.95,	14.76,	1639,	1625
104,	8320,	8439,	8534,	8226,	7608,	8191,	7894,	8393,	8172,	7987,	8663,	8193,	8111,	8073,	13.04,	14.67,	12.87,	11.56,	14.41,	2.79,	14.10,	13.30,	6.21,	12.95,	0.09,	0.64,	14.96,	14.76,	1636,	1618
105,	8328,	8438,	8494,	8224,	7606,	8183,	7881,	8364,	8137,	8019,	8647,	8170,	8098,	8062,	13.04,	14.67,	12.87,	11.56,	14.41,	2.79,	14.10,	13.30,	6.21,	12.95,	0.09,	0.64,	14.96,	14.77,	1637,	1607
106,	8328,	8436,	8433,	8204,	7555,	8171,	7867,	8339,	8131,	8000,	8620,	8164,	8077,	8051,	13.04,	14.67,	12.87,	11.56,	14.41,	2.79,	14.10,	13.30,	6.21,	12.95,	0.10,	0.64,	14.96,	14.77,	1633,	1592
107,	8312,	8423,	8396,	8190,	7574,	8180,	7859,	8346,	8138,	7960,	8598,	8160,	8058,	8034,	13.04,	14.67,	12.87,	11.56,	14.41,	2.79,	14.10,	13.30,	6.21,	12.95,	0.10,	0.64,	14.96,	14.77,	1630,	1587
108,	8287,	8404,	8365,	8190,	7612,	8200,	7856,	8345,	8121,	7872,	8603,	8160,	8065,	8017,	13.04,	14.67,	12.87,	11.56,	14.41,	2.79,	14.10,	13.30,	6.21,	12.95,	0.10,	0.64,	14.93,	14.77,	1626,	1585
109,	8286,	8403,	8361,	8197,	7560,	8188,	7863,	8350,	8137,	7853,	8614,	8169,	8070,	8017,	13.04,	14.67,	12.87,	11.56,	14.41,	2.79,	14.10,	13.30,	6.21,	12.95,	0.10,	0.64,	14.93,	14.80,	1624,	1590
110,	8282,	8405,	8378,	8183,	7551,	8189,	7882,	8382,	8162,	7921,	8577,	8147,	8035,	8003,	13.04,	14.67,	12.87,	11.56,	14.41,	2.79,	14.10,	13.30,	6.21,	12.95,	0.09,	0.64,	14.93,	14.80,	1623,	1600
111,	8270,	8400,	8410,	8175,	7596,	8217,	7889,	8383,	8149,	7963,	8546,	8131,	8015,	7988,	13.04,	14.67,	12.87,	11.56,	14.41,	2.79,	14.10,	13.30,	6.21,	12.95,	0.09,	0.61,	14.93,	14.80,	1624,	1614
112,	8289,	8415,	8474,	8207,	7568,	8204,	7870,	8345,	8148,	7989,	8585,	8155,	8050,	8011,	13.04,	14.67,	12.87,	11.56,	14.41,	2.79,	14.10,	13.30,	6.21,	12.95,	0.09,	0.61,	14.96,	14.80,	1627,	1621
113,	8308,	8424,	8512,	8220,	7566,	8193,	7865,	8328,	8150,	7949,	8614,	8159,	8079,	8028,	13.04,	14.67,	12.87,	11.56,	14.41,	2.79,	14.10,	13.30,	6.21,	12.95,	0.09,	0.61,	14.96,	14.77,	1632,	1628
114,	8298,	8403,	8497,	8196,	7582,	8222,	7878,	8350,	8130,	7864,	8578,	8124,	8050,	8006,	13.04,	14.67,	12.87,	11.56,	14.41,	2.79,	14.10,	13.30,	6.21,	12.95,	0.09,	0.61,	14.96,	14.77,	1637,	1628
115,	8301,	8395,	8463,	8182,	7557,	8221,	7873,	8377,	8145,	7887,	8566,	8127,	8025,	8003,	13.04,	14.67,	12.87,	11.56,	14.41,	2.79,	14.10,	13.30,	6.21,	12.95,	0.09,	0.61,	14.96,	14.77,	1640,	1628
116,	8321,	8402,	8420,	8188,	7551,	8198,	7854,	8383,	8171,	7955,	8576,	8146,	8046,	8021,	13.04,	14.67,	12.87,	11.56,	14.41,	2.79,	14.10,	13.30,	6.21,	12.95,	0.09,	0.61,	14.96,	14.77,	1643,	1633
117,	8320,	8382,	8345,	8175,	7596,	8215,	7843,	8371,	8151,	7965,	8542,	8118,	8038,	8000,	13.04,	14.67,	12.87,	11.56,	14.41,	2.79,	14.10,	13.30,	6.21,	12.95,	0.09,	0.61,	14.96,	14.80,	1637,	1645
118,	8310,	8350,	8275,	8151,	7625,	8235,	7855,	8407,	8159,	7971,	8519,	8098,	7988,	7967,	13.04,	14.67,	12.87,	11.56,	14.41,	2.79,	14.10,	13.30,	6.21,	12.95,	0.10,	0.61,	14.96,	14.80,	1632,	1660
119,	8307,	8328,	8237,	8129,	7561,	8229,	7889,	8473,	8202,	7940,	8513,	8082,	7965,	7957,	13.04,	14.67,	12.87,	11.56,	14.41,	2.79,	14.10,	13.30,	6.21,	12.95,	0.10,	0.61,	14.96,	14.80,	1624,	1670
120,	8305,	8341,	8237,	8112,	7494,	8232,	7884,	8440,	8194,	7860,	8474,	8061,	7970,	7960,	13.04,	14.67,	12.87,	11.56,	14.41,	2.79,	14.10,	13.30,	6.21,	12.95,	0.10,	0.61,	14.93,	14.80,	1615,	1676
121,	8311,	8387,	8281,	8133,	7509,	8221,	7830,	8365,	8175,	7871,	8474,	8105,	7985,	7976,	13.04,	14.67,	12.87,	11.56,	14.41,	2.79,	14.10,	13.30,	6.21,	12.95,	0.10,	0.61,	14.93,	14.79,	1609,	1673
122,	8320,	8403,	8321,	8172,	7574,	8200,	7803,	8370,	8184,	7935,	8541,	8162,	8008,	7999,	13.04,	14.67,	12.87,	11.56,	14.41,	2.79,	14.10,	13.30,	6.21,	12.95,	0.10,	0.61,	14.93,	14.79,	1609,	1667
123,	8314,	8388,	8311,	8179,	7573,	8186,	7814,	8406,	8188,	7956,	8557,	8185,	8014,	8012,	13.04,	14.67,	12.87,	11.56,	14.41,	2.79,	14.10,	13.30,	6.21,	12.95,	0.10,	0.62,	14.93,	14.79,	1613,	1660
124,	8307,	8403,	8256,	8188,	7519,	8165,	7799,	8392,	8181,	7925,	8510,	8213,	7995,	8010,	13.04,	14.67,	12.87,	11.56,	14.41,	2.79,	14.10,	13.30,	6.21,	12.95,	0.10,	0.62,	14.98,	14.79,	1617,	1661
125,	8306,	8420,	8197,	8209,	7535,	8168,	7766,	8376,	8184,	7910,	8493,	8225,	7978,	8003,	13.04,	14.67,	12.87,	11.56,	14.41,	2.79,	14.10,	13.30,	6.21,	12.95,	0.10,	0.62,	14.98,	14.79,	1625,	1663
126,	8307,	8403,	8199,	8218,	7596,	8190,	7743,	8380,	8206,	7965,	8525,	8197,	7985,	8006,	13.04,	14.67,	12.87,	11.56,	14.41,	2.79,	14.10,	13.30,	6.21,	12.95,	0.10,	0.62,	14.98,	14.79,	1630,	1667
127,	8317,	8410,	8262,	8234,	7562,	8184,	7722,	8376,	8219,	7982,	8549,	8194,	7999,	8022,	13.04,	14.67,	12.87,	11.56,	14.41,	2.79,	14.10,	13.30,	6.21,	12.95,	0.10,	0.62,	14.98,	14.79,	1636,	1665
0,	8309,	8428,	8343,	8235,	7558,	8223,	7692,	8375,	8217,	7855,	8496,	8161,	7975,	8009,	13.04,	14.67,	12.87,	11.56,	14.41,	2.79,	14.10,	13.30,	6.21,	12.95,	0.10,	0.62,	14.98,	14.79,	1639,	1655
1,	8296,	8403,	8368,	8219,	7560,	8223,	7698,	8379,	8223,	7953,	8476,	8134,	7963,	8005,	13.04,	14.67,	12.87,	11.56,	14.41,	2.79,	14.10,	13.30,	6.21,	12.95,	0.10,	0.62,	14.98,	14.79,	1639,	1648
2,	8299,	8404,	8365,	8219,	7546,	8204,	7728,	8406,	8224,	8006,	8467,	8128,	7958,	8004,	13.04,	14.67,	13.21,	11.56,	14.41,	2.79,	14.10,	13.30,	6.21,	12.95,	0.10,	0.62,	14.98,	14.79,	1637,	1644
3,	8303,	8400,	8335,	8206,	7569,	8212,	7736,	8425,	8227,	7966,	8461,	8128,	7965,	8000,	13.04,	14.67,	13.21,	11.56,	14.41,	2.79,	14.10,	13.30,	6.21,	12.95,	0.10,	0.62,	14.98,	14.79,	1635,	1638
4,	8313,	8395,	8330,	8212,	7544,	8199,	7697,	8410,	8240,	7925,	8478,	8145,	7996,	8015,	13.04,	14.67,	13.21,	11.56,	0.01,	2.79,	14.10,	13.30,	6.21,	12.95,	0.10,	0.62,	14.98,	14.79,	1631,	1637
5,	8311,	8388,	8325,	8213,	7525,	8190,	7671,	8386,	8224,	7855,	8454,	8118,	7985,	8011,	13.04,	14.67,	13.21,	11.56,	0.01,	2.83,	14.10,	13.30,	6.21,	12.95,	0.10,	0.62,	14.98,	14.79,	1628,	1637
6,	8272,	8340,	8290,	8161,	7522,	8189,	7669,	8374,	8180,	7817,	8366,	8048,	7915,	7957,	13.04,	14.67,	13.21,	11.56,	0.01,	2.83,	14.12,	13.30,	6.21,	12.95,	0.10,	0.62,	14.98,	14.79,	1624,	1641
7,	8246,	8301,	8284,	8125,	7393,	8132,	7623,	8345,	8155,	7901,	8340,	8026,	7884,	7919,	13.04,	14.67,	13.21,	11.56,	0.01,	2.83,	14.12,	13.50,	6.21,	12.95,	0.10,	0.62,	14.98,	14.79,	1621,	1649
8,	8248,	8310,	8306,	8135,	7301,	8071,	7557,	8289,	8137,	7915,	8378,	8041,	7901,	7923,	13.04,	14.67,	13.21,	11.56,	0.01,	2.83,	14.12,	13.50,	6.18,	12.95,	0.10,	0.62,	14.98,	14.79,	1618,	1659
9,	8232,	8288,	8287,	8117,	7383,	8085,	7552,	8247,	8104,	7780,	8344,	8014,	7881,	7906,	13.04,	14.67,	13.21,	11.56,	0.01,	2.83,	14.12,	13.50,	6.18,	12.86,	0.10,	0.62,	14.98,	14.79,	1619,	1667
10,	8202,	8245,	8236,	8076,	7420,	8105,	7574,	8259,	8093,	7756,	8270,	7976,	7839,	7870,	13.04,	14.67,	13.21,	11.56,	0.01,	2.83,	14.12,	13.50,	6.18,	12.86,	0.50,	0.62,	14.98,	14.79,	1617,	1669
11,	8193,	8245,	8193,	8068,	7364,	8092,	7561,	8282,	8114,	7853,	8280,	7970,	7833,	7867,	13.04,	14.67,	13.21,	11.56,	0.01,	2.83,	14.12,	13.50,	6.18,	12.86,	0.50,	0.90,	14.98,	14.79,	1618,	1671
12,	8189,	8241,	8136,	8066,	7354,	8082,	7543,	8259,	8101,	7835,	8284,	7942,	7815,	7853,	13.04,	14.67,	13.21,	11.56,	0.01,	2.83,	14.12,	13.50,	6.18,	12.86,	0.50,	0.90,	0.04,	14.79,	1620,	1669
13,	8173,	8211,	8056,	8049,	7407,	8076,	7541,	8245,	8077,	7760,	8227,	7896,	7768,	7808,	13.04,	14.67,	13.21,	11.56,	0.01,	2.83,	14.12,	13.50,	6.18,	12.86,	0.50,	0.90,	0.04,	15.01,	1619,	1669
14,	8171,	8213,	7999,	8038,	7384,	8061,	7531,	8262,	8104,	7776,	8213,	7891,	7770,	7804,	13.04,	14.67,	13.21,	11.56,	0.01,	2.83,	14.12,	13.50,	6.18,	12.86,	0.52,	0.90,	0.04,	15.01,	1621,	1662
15,	8174,	8222,	7966,	8030,	7279,	8055,	7522,	8275,	8145,	7746,	8215,	7907,	7790,	7813,	13.04,	14.67,	13.21,	11.56,	0.01,	2.83,	14.12,	13.50,	6.18,	12.86,	0.52,	0.92,	0.04,	15.01,	1619,	1652
16,	8147,	8190,	7933,	8011,	7277,	8077,	7552,	8300,	8126,	7647,	8168,	7864,	7757,	7776,	13.04,	14.67,	13.21,	11.56,	0.01,	2.83,	14.12,	13.50,	6.18,	12.86,	0.52,	0.92,	0.04,	15.01,	1618,	1644
17,	8144,	8192,	7963,	7997,	7388,	8079,	7553,	8302,	8082,	7686,	8145,	7840,	7755,	7774,	13.04,	14.67,	13.21,	11.56,	0.01,	2.83,	14.12,	13.50,	6.18,	12.86,	0.52,	0.92,	0.04,	15.01,	1612,	1637
18,	8186,	8252,	8055,	8017,	7457,	8041,	7464,	8224,	8083,	7830,	8175,	7927,	7821,	7844,	13.04,	14.67,	13.21,	11.56,	0.01,	2.83,	14.12,	13.50,	6.18,	12.86,	0.52,	0.92,	0.04,	15.01,	1605,	1629
19,	8187,	8243,	8092,	8040,	7420,	8022,	7397,	8176,	8114,	7856,	8188,	7954,	7832,	7855,	13.04,	14.67,	13.21,	11.56,	0.01,	2.83,	14.12,	13.50,	6.18,	12.86,	0.52,	0.92,	0.04,	15.01,	1597,	1617
20,	8140,	8183,	8089,	8037,	7295,	8037,	7417,	8200,	8105,	7795,	8198,	7864,	7774,	7792,	13.04,	14.67,	13.21,	11.56,	0.01,	2.83,	14.12,	13.50,	6.18,	12.86,	0.52,	0.92,	0.04,	15.01,	1583,	1591
21,	8119,	8178,	8126,	8035,	7252,	8040,	7430,	8211,	8085,	7774,	8220,	7822,	7754,	7760,	13.04,	14.67,	13.21,	11.56,	0.01,	2.83,	14.12,	13.50,	6.18,	12.86,	0.52,	0.92,	0.04,	15.01,	1577,	1586
22,	8123,	8187,	8177,	8038,	7333,	8037,	7422,	8249,	8121,	7749,	8166,	7825,	7769,	7779,	13.04,	14.67,	13.21,	11.56,	0.01,	2.83,	14.12,	13.50,	6.18,	12.86,	0.52,	0.92,	0.04,	15.01,	1574,	1583
23,	8127,	8197,	8213,	8000,	7327,	8043,	7438,	8291,	8140,	7679,	8069,	7832,	7767,	7806,	13.04,	14.67,	13.21,	11.56,	0.01,	2.83,	14.12,	13.50,	6.18,	12.86,	0.52,	0.92,	0.04,	15.01,	1572,	1579
24,	8130,	8234,	8243,	7967,	7298,	8043,	7428,	8226,	8079,	7615,	8079,	7865,	7777,	7803,	13.04,	14.67,	13.21,	11.56,	0.01,	2.83,	14.12,	13.50,	6.18,	12.86,	0.52,	0.92,	0.04,	15.01,	1571,	1574
25,	8125,	8213,	8254,	8012,	7372,	8070,	7430,	8205,	8061,	7671,	8158,	7866,	7801,	7800,	13.04,	14.67,	13.21,	11.56,	0.01,	2.83,	14.12,	13.50,	6.18,	12.86,	0.52,	0.92,	0.04,	15.01,	1571,	1572
26,	8154,	8225,	8301,	7994,	7402,	8105,	7477,	8312,	8130,	7785,	8178,	7895,	7834,	7862,	13.04,	14.67,	13.21,	11.56,	0.01,	2.83,	14.12,	13.50,	6.18,	12.86,	0.52,	0.92,	0.04,	15.01,	1573,	1568
27,	8220,	8342,	8390,	7905,	7357,	8078,	7461,	8318,	8150,	7810,	8191,	8026,	7898,	7945,	13.04,	14.67,	13.21,	11.56,	0.01,	2.83,	14.12,	13.50,	6.18,	12.86,	0.52,	0.92,	0.04,	15.01,	1573,	1567
28,	8235,	8333,	8370,	7992,	7290,	8037,	7398,	8225,	8119,	7847,	8301,	8063,	7912,	7929,	13.04,	14.67,	13.21,	11.56,	0.01,	2.83,	14.12,	13.50,	6.18,	12.86,	0.52,	0.92,	0.04,	15.01,	1577,	1569
29,	8192,	8184,	8227,	8166,	7300,	8065,	7390,	8225,	8125,	7894,	8415,	7952,	7870,	7869,	13.04,	14.67,	13.21,	11.56,	0.01,	2.83,	14.12,	13.50,	6.18,	12.86,	0.52,	0.92,	0.04,	15.01,	1580,	1574
30,	8180,	8162,	8135,	8151,	7413,	8087,	7415,	8267,	8139,	7821,	8400,	7930,	7893,	7885,	13.04,	14.67,	13.21,	11.56,	0.01,	2.83,	14.12,	13.50,	6.18,	12.86,	0.52,	0.92,	0.04,	15.01,	1583,	1583
31,	8198,	8243,	8098,	8061,	7414,	8044,	7420,	8271,	8146,	7756,	8326,	8016,	7935,	7921,	13.04,	14.67,	13.21,	11.56,	0.01,	2.83,	14.12,	13.50,	6.18,	12.86,	0.52,	0.92,	0.04,	15.01,	1587,	1590
32,	8190,	8235,	8008,	8071,	7274,	8036,	7420,	8274,	8162,	7819,	8306,	8014,	7871,	7889,	13.04,	14.67,	13.21,	11.56,	0.01,	2.83,	14.12,	13.50,	6.18,	12.86,	0.52,	0.92,	0.04,	15.01,	1587,	1602
33,	8176,	8191,	7884,	8089,	7283,	8063,	7415,	8279,	8170,	7825,	8325,	7897,	7803,	7841,	13.04,	14.67,	13.21,	11.56,	0.01,	2.83,	14.12,	13.50,	6.18,	12.86,	0.52,	0.92,	0.04,	15.01,	1590,	1609
34,	8184,	8192,	7786,	8074,	7379,	8047,	7413,	8300,	8176,	7763,	8321,	7821,	7821,	7833,	13.04,	14.67,	13.21,	11.56,	0.01,	2.83,	14.12,	13.50,	6.18,	12.86,	0.52,	0.92,	0.04,	15.01,	1591,	1613
35,	8205,	8200,	7708,	8070,	7347,	8028,	7436,	8324,	8170,	7792,	8307,	7845,	7824,	7831,	13.04,	14.67,	13.21,	11.56,	0.01,	2.83,	14.12,	13.50,	6.18,	12.86,	0.52,	0.92,	0.04,	15.01,	1595,	1612
36,	8206,	8194,	7625,	8052,	7318,	8054,	7456,	8267,	8124,	7819,	8261,	7834,	7775,	7803,	13.04,	14.67,	13.21,	11.56,	0.01,	2.83,	14.12,	13.50,	6.18,	12.86,	0.52,	0.92,	0.04,	15.01,	1598,	1611
37,	8179,	8184,	7540,	8035,	7339,	8091,	7463,	8199,	8089,	7742,	8190,	7773,	7726,	7767,	13.04,	14.67,	13.21,	11.56,	0.01,	2.83,	14.12,	13.50,	6.18,	12.86,	0.52,	0.92,	0.04,	15.01,	1603,	1614
38,	8158,	8170,	7474,	8017,	7327,	8099,	7481,	8248,	8118,	7683,	8170,	7759,	7708,	7742,	13.04,	14.67,	13.21,	11.56,	0.01,	2.83,	14.12,	13.50,	6.18,	12.86,	0.52,	0.92,	0.04,	15.01,	1604,	1623
39,	8159,	8145,	7448,	7992,	7364,	8090,	7492,	8314,	8164,	7743,	8185,	7761,	7727,	7738,	13.04,	14.67,	13.21,	11.56,	0.01,	2.83,	14.12,	13.50,	6.18,	12.86,	0.52,	0.92,	0.04,	15.01,	1606,	1632
40,	8173,	8152,	7482,	7999,	7359,	8075,	7476,	8284,	8166,	7767,	8209,	7749,	7758,	7753,	13.04,	14.67,	13.21,	11.56,	0.01,	2.83,	14.12,	13.50,	6.18,	12.86,	0.52,	0.92,	0.04,	15.01,	1606,	1636
41,	8181,	8189,	7520,	8010,	7226,	8072,	7492,	8296,	8170,	7686,	8235,	7761,	7778,	7768,	13.04,	14.67,	13.21,	11.56,	0.01,	2.83,	14.12,	13.50,	6.18,	12.86,	0.52,	0.92,	0.04,	15.01,	1605,	1638
42,	8176,	8186,	7526,	7998,	7218,	8082,	7535,	8357,	8195,	7702,	8251,	7800,	7782,	7780,	13.04,	14.67,	13.21,	11.56,	0.01,	2.83,	14.12,	13.50,	6.18,	12.86,	0.52,	0.92,	0.04,	15.01,	1605,	1637
43,	8169,	8156,	7538,	8009,	7382,	8074,	7526,	8309,	8179,	7799,	8273,	7822,	7784,	7783,	13.04,	14.67,	13.21,	11.56,	0.01,	2.83,	14.12,	13.50,	6.18,	12.86,	0.52,	0.92,	0.04,	15.01,	1603,	1637
44,	8156,	8161,	7537,	8041,	7405,	8048,	7495,	8212,	8133,	7767,	8291,	7795,	7776,	7766,	13.04,	14.67,	13.21,	11.56,	0.01,	2.83,	14.12,	13.50,	6.18,	12.86,	0.52,	0.92,	0.04,	15.01,	1604,	1635
45,	8139,	8180,	7496,	8044,	7280,	8034,	7514,	8210,	8116,	7656,	8272,	7747,	7754,	7741,	13.04,	14.67,	13.21,	11.56,	0.01,	2.83,	14.12,	13.50,	6.18,	12.86,	0.52,	0.92,	0.04,	15.01,	1604,	1636
46,	8124,	8170,	7465,	8014,	7278,	8030,	7559,	8249,	8132,	7672,	8250,	7749,	7740,	7738,	13.04,	14.67,	13.21,	11.56,	0.01,	2.83,	14.12,	13.50,	6.18,	12.86,	0.52,	0.92,	0.04,	15.01,	1608,	1639
47,	8110,	8154,	7467,	8000,	7308,	8030,	7575,	8234,	8143,	7761,	8246,	7785,	7735,	7739,	13.04,	14.67,	13.21,	11.56,	0.01,	2.83,	14.12,	13.50,	6.18,	12.86,	0.52,	0.92,	0.04,	15.01,	1614,	1644
48,	8098,	8157,	7474,	8008,	7279,	8036,	7585,	8212,	8141,	7740,	8229,	7781,	7725,	7722,	13.04,	14.67,	13.21,	11.56,	0.01,	2.83,	14.12,	13.50,	6.18,	12.86,	0.52,	0.92,	0.04,	15.01,	1622,	1651
49,	8094,	8162,	7487,	8011,	7322,	8037,	7610,	8220,	8146,	7667,	8212,	7760,	7721,	7724,	13.04,	14.67,	13.21,	11.56,	0.01,	2.83,	14.12,	13.50,	6.18,	12.86,	0.52,	0.92,	0.04,	15.01,	1631,	1648
50,	8088,	8159,	7495,	8000,	7355,	8047,	7650,	8257,	8162,	7693,	8215,	7760,	7729,	7744,	13.04,	14.67,	13.21,	11.56,	0.01,	2.83,	14.12,	13.50,	6.18,	12.86,	0.52,	0.92,	0.04,	15.01,	1644,	1635
51,	8086,	8157,	7486,	8005,	7295,	8073,	7685,	8293,	8176,	7701,	8223,	7778,	7745,	7753,	13.04,	14.67,	13.21,	11.56,	0.01,	2.83,	14.12,	13.50,	6.18,	12.86,	0.52,	0.92,	0.04,	15.01,	1656,	1622
52,	8099,	8171,	7484,	8021,	7280,	8071,	7703,	8288,	8170,	7634,	8223,	7783,	7752,	7750,	13.04,	14.67,	13.21,	11.56,	0.01,	2.83,	14.12,	13.50,	6.18,	12.86,	0.52,	0.92,	0.04,	15.01,	1668,	1624
53,	8104,	8169,	7464,	8009,	7398,	8048,	7721,	8266,	8147,	7661,	8190,	7754,	7726,	7728,	13.04,	14.67,	13.21,	11.56,	0.01,	2.83,	14.12,	13.50,	6.18,	12.86,	0.52,	0.92,	0.04,	15.01,	1681,	1626
54,	8097,	8142,	7424,	7990,	7390,	8049,	7724,	8246,	8123,	7707,	8161,	7746,	7708,	7703,	13.04,	14.67,	13.21,	11.56,	0.01,	2.83,	14.12,	13.50,	6.18,	12.86,	0.52,	0.92,	0.04,	15.01,	1694,	1628
55,	8108,	8149,	7422,	8000,	7255,	8040,	7721,	8246,	8141,	7652,	8186,	7785,	7737,	7710,	13.04,	14.67,	13.21,	11.56,	0.01,	2.83,	14.12,	13.50,	6.18,	12.86,	0.52,	0.92,	0.04,	15.01,	1708,	1628
56,	8128,	8174,	7474,	8012,	7250,	8005,	7745,	8265,	8175,	7670,	8208,	7797,	7759,	7716,	13.04,	14.67,	13.21,	11.56,	0.01,	2.83,	14.12,	13.50,	6.18,	12.86,	0.52,	0.92,	0.04,	15.01,	1714,	1630
57,	8123,	8152,	7531,	7996,	7342,	8007,	7756,	8245,	8132,	7742,	8168,	7767,	7738,	7679,	13.04,	14.67,	13.21,	11.56,	0.01,	2.83,	14.12,	13.50,	6.18,	12.86,	0.52,	0.92,	0.04,	15.01,	1714,	1629
58,	8109,	8125,	7552,	7973,	7329,	8042,	7735,	8223,	8094,	7665,	8120,	7770,	7728,	7650,	13.04,	14.67,	13.21,	11.56,	0.01,	2.83,	14.12,	13.50,	6.18,	12.86,	0.52,	0.92,	0.04,	15.01,	1709,	1616
59,	8116,	8124,	7538,	7967,	7251,	8040,	7744,	8269,	8130,	7569,	8102,	7793,	7746,	7655,	13.04,	14.67,	13.21,	11.56,	0.01,	2.83,	14.12,	13.50,	6.18,	12.86,	0.52,	0.92,	0.04,	15.01,	1696,	1591
60,	8114,	8113,	7511,	7962,	7270,	8011,	7761,	8277,	8115,	7631,	8080,	7787,	7753,	7643,	13.04,	14.67,	13.21,	11.56,	0.01,	2.83,	14.12,	13.50,	6.18,	12.86,	0.52,	0.92,	0.04,	15.01,	1676,	1561
61,	8088,	8089,	7522,	7945,	7248,	8010,	7708,	8207,	8037,	7704,	8061,	7787,	7751,	7598,	13.04,	14.67,	13.21,	11.56,	0.01,	2.83,	14.12,	13.50,	6.18,	12.86,	0.52,	0.92,	0.04,	15.01,	1653,	1541
62,	8076,	8072,	7589,	7924,	7173,	8014,	7623,	8191,	8017,	7656,	8058,	7807,	7760,	7559,	13.04,	14.67,	13.21,	11.56,	0.01,	2.83,	14.12,	13.50,	6.18,	12.86,	0.52,	0.92,	0.04,	15.01,	1634,	1527
63,	8078,	8067,	7680,	7918,	7191,	8006,	7591,	8231,	8039,	7611,	8027,	7816,	7750,	7559,	13.04,	14.67,	13.21,	11.56,	0.01,	2.83,	14.12,	13.50,	6.18,	12.86,	0.52,	0.92,	0.04,	15.01,	1621,	1531
64,	8068,	8075,	7790,	7915,	7236,	8020,	7580,	8230,	8024,	7648,	7984,	7801,	7719,	7588,	13.04,	14.67,	13.21,	11.56,	0.01,	2.83,	14.12,	13.50,	6.18,	12.86,	0.52,	0.92,	0.04,	15.01,	1617,	1558
65,	8079,	8089,	7931,	7912,	7179,	8055,	7527,	8238,	8024,	7715,	8026,	7803,	7738,	7656,	13.04,	14.68,	13.21,	11.56,	0.01,	2.83,	14.12,	13.50,	6.18,	12.86,	0.52,	0.92,	0.04,	15.01,	1621,	1619
66,	8127,	8110,	8071,	7915,	7112,	8097,	7518,	8286,	8050,	7764,	8136,	7820,	7789,	7739,	13.04,	14.68,	13.42,	11.56,	0.01,	2.83,	14.12,	13.50,	6.18,	12.86,	0.52,	0.92,	0.04,	15.01,	1634,	1700
67,	8165,	8133,	8132,	7918,	7189,	8146,	7590,	8316,	8059,	7778,	8207,	7836,	7804,	7779,	13.04,	14.68,	13.42,	11.59,	0.01,	2.83,	14.12,	13.50,	6.18,	12.86,	0.52,	0.92,	0.04,	15.01,	1643,	1776
68,	8199,	8151,	8054,	7928,	7292,	8174,	7621,	8351,	8088,	7796,	8251,	7884,	7832,	7822,	13.04,	14.68,	13.42,	11.59,	14.41,	2.83,	14.12,	13.50,	6.18,	12.86,	0.52,	0.92,	0.04,	15.01,	1651,	1823
69,	8263,	8193,	7865,	7960,	7312,	8161,	7613,	8403,	8139,	7832,	8313,	7963,	7902,	7890,	13.04,	14.68,	13.42,	11.59,	14.41,	2.80,	14.12,	13.50,	6.18,	12.86,	0.52,	0.92,	0.04,	15.01,	1660,	1826
70,	8329,	8237,	7645,	8004,	7338,	8140,	7722,	8441,	8175,	7874,	8369,	8042,	7950,	7828,	13.04,	14.68,	13.42,	11.59,	14.41,	2.80,	14.13,	13.50,	6.18,	12.86,	0.52,	0.92,	0.04,	15.01,	1663,	1800
71,	8362,	8218,	7446,	8022,	7451,	8128,	7926,	8414,	8170,	7887,	8357,	8101,	7963,	7636,	13.04,	14.68,	13.42,	11.59,	14.41,	2.80,	14.13,	13.60,	6.18,	12.86,	0.52,	0.92,	0.04,	15.01,	1661,	1753
72,	8391,	8182,	7307,	8003,	7498,	8102,	8052,	8321,	8116,	7867,	8268,	8140,	7969,	7588,	13.04,	14.68,	13.42,	11.59,	14.41,	2.80,	14.13,	13.60,	6.16,	12.86,	0.52,	0.92,	0.04,	15.01,	1654,	1709
73,	8421,	8178,	7235,	7974,	7336,	8068,	8089,	8259,	8065,	7836,	8174,	8142,	7945,	7696,	13.04,	14.68,	13.42,	11.59,	14.41,	2.80,	14.13,	13.60,	6.16,	12.87,	0.52,	0.92,	0.04,	15.01,	1652,	1678
74,	8428,	8192,	7238,	7977,	7228,	8059,	8082,	8271,	8082,	7812,	8138,	8136,	7920,	7741,	13.04,	14.68,	13.42,	11.59,	14.41,	2.80,	14.13,	13.60,	6.16,	12.87,	0.74,	0.92,	0.04,	15.01,	1652,	1665
75,	8428,	8224,	7353,	7998,	7350,	8061,	7974,	8289,	8143,	7814,	8153,	8155,	7934,	7695,	13.04,	14.68,	13.42,	11.59,	14.41,	2.80,	14.13,	13.60,	6.16,	12.87,	0.74,	1.33,	0.04,	15.01,	1661,	1684
76,	8409,	8246,	7556,	7991,	7425,	8061,	7791,	8288,	8164,	7803,	8183,	8149,	7938,	7658,	13.04,	14.68,	13.42,	11.59,	14.41,	2.80,	14.13,	13.60,	6.16,	12.87,	0.74,	1.33,	0.04,	15.01,	1666,	1706
77,	8375,	8234,	7799,	7985,	7349,	8106,	7672,	8322,	8154,	7786,	8220,	8095,	7921,	7659,	13.04,	14.68,	13.42,	11.59,	14.41,	2.80,	14.13,	13.60,	6.16,	12.87,	0.74,	1.33,	0.04,	15.05,	1671,	1718
78,	8370,	8246,	8045,	8017,	7312,	8181,	7631,	8380,	8170,	7823,	8273,	8061,	7950,	7709,	13.04,	14.68,	13.42,	11.59,	14.41,	2.80,	14.13,	13.60,	6.16,	12.87,	0.76,	1.33,	0.04,	15.05,	1674,	1714
79,	8391,	8279,	8221,	8061,	7341,	8189,	7603,	8431,	8215,	7927,	8322,	8075,	8004,	7770,	13.04,	14.68,	13.42,	11.59,	14.41,	2.80,	14.13,	13.60,	6.16,	12.87,	0.76,	1.35,	0.04,	15.05,	1673,	1693
80,	8396,	8267,	8227,	8065,	7309,	8167,	7600,	8444,	8239,	8014,	8313,	8056,	8003,	7770,	13.04,	14.68,	13.42,	11.59,	14.41,	2.80,	14.13,	13.60,	6.16,	12.87,	0.76,	1.35,	0.00,	15.05,	1671,	1670
81,	8388,	8251,	8082,	8038,	7320,	8187,	7629,	8417,	8218,	7986,	8253,	8009,	7976,	7749,	13.04,	14.68,	13.42,	11.59,	14.41,	2.80,	14.13,	13.60,	6.16,	12.87,	0.76,	1.35,	0.00,	15.07,	1669,	1649
82,	8394,	8254,	7916,	8026,	7410,	8205,	7652,	8407,	8223,	7919,	8206,	8009,	7979,	7749,	13.04,	14.68,	13.42,	11.59,	14.41,	2.80,	14.13,	13.60,	6.16,	12.87,	0.71,	1.35,	0.00,	15.07,	1664,	1638
83,	8396,	8235,	7794,	8015,	7390,	8200,	7675,	8404,	8253,	7909,	8176,	8018,	7988,	7735,	13.04,	14.68,	13.42,	11.59,	14.41,	2.80,	14.13,	13.60,	6.16,	12.87,	0.71,	1.35,	0.00,	15.07,	1661,	1636
84,	8382,	8217,	7731,	7994,	7359,	8216,	7691,	8383,	8252,	7952,	8138,	7982,	7969,	7700,	13.04,	14.68,	13.42,	11.59,	14.41,	2.80,	14.13,	13.60,	6.16,	12.87,	0.71,	1.35,	0.04,	15.07,	1656,	1644
85,	8379,	8242,	7773,	7994,	7357,	8233,	7683,	8388,	8260,	7963,	8132,	7958,	7971,	7709,	13.04,	14.68,	13.42,	11.59,	14.41,	2.80,	14.13,	13.60,	6.16,	12.87,	0.71,	1.35,	0.04,	15.10,	1656,	1650
86,	8381,	8283,	7896,	8015,	7286,	8225,	7683,	8430,	8291,	7932,	8163,	7985,	8013,	7757,	13.04,	14.68,	13.42,	11.59,	14.41,	2.80,	14.13,	13.60,	6.16,	12.87,	0.76,	1.35,	0.04,	15.10,	1654,	1651
87,	8371,	8287,	8001,	8026,	7280,	8233,	7710,	8449,	8291,	7962,	8165,	7981,	8020,	7774,	13.04,	14.68,	13.42,	11.59,	14.41,	2.80,	14.13,	13.60,	6.16,	12.87,	0.76,	1.33,	0.04,	15.10,	1653,	1652
88,	8356,	8254,	8034,	8016,	7430,	8263,	7740,	8454,	8274,	8039,	8145,	7943,	7997,	7771,	13.04,	14.68,	13.42,	11.59,	14.41,	2.80,	14.13,	13.60,	6.16,	12.87,	0.76,	1.33,	0.00,	15.10,	1653,	1650
89,	8358,	8237,	8023,	8010,	7484,	8267,	7757,	8474,	8277,	8033,	8152,	7958,	8014,	7797,	13.04,	14.68,	13.42,	11.59,	14.41,	2.80,	14.13,	13.60,	6.16,	12.87,	0.76,	1.33,	0.00,	15.07,	1652,	1646
90,	8382,	8264,	7984,	8029,	7340,	8237,	7758,	8486,	8280,	7974,	8169,	8014,	8051,	7837,	13.04,	14.68,	13.42,	11.59,	14.41,	2.80,	14.13,	13.60,	6.16,	12.87,	0.74,	1.33,	0.00,	15.07,	1651,	1638
91,	8408,	8295,	7912,	8050,	7251,	8214,	7757,	8482,	8288,	8013,	8158,	8030,	8049,	7845,	13.04,	14.68,	13.42,	11.59,	14.41,	2.80,	14.13,	13.60,	6.16,	12.87,	0.74,	1.32,	0.00,	15.07,	1650,	1635
92,	8419,	8278,	7859,	8041,	7355,	8231,	7774,	8487,	8312,	8043,	8142,	8011,	8034,	7837,	13.04,	14.68,	13.42,	11.59,	14.41,	2.80,	14.13,	13.60,	6.16,	12.87,	0.74,	1.32,	0.03,	15.07,	1650,	1637
93,	8418,	8252,	7852,	8031,	7476,	8257,	7795,	8510,	8324,	8007,	8134,	8009,	8045,	7839,	13.04,	14.68,	13.42,	11.59,	14.41,	2.80,	14.13,	13.60,	6.16,	12.87,	0.74,	1.32,	0.03,	15.10,	1648,	1642
94,	8415,	8263,	7855,	8040,	7417,	8260,	7803,	8516,	8302,	8026,	8104,	8006,	8038,	7828,	13.04,	14.68,	13.42,	11.59,	14.41,	2.80,	14.13,	13.60,	6.16,	12.87,	0.76,	1.32,	0.03,	15.10,	1651,	1644
95,	8415,	8290,	7875,	8045,	7336,	8249,	7811,	8512,	8283,	8012,	8067,	8001,	8024,	7819,	13.04,	14.68,	13.42,	11.59,	14.41,	2.80,	14.13,	13.60,	6.16,	12.87,	0.76,	1.35,	0.03,	15.10,	1651,	1648
96,	8418,	8287,	7920,	8050,	7411,	8250,	7811,	8523,	8305,	7945,	8067,	8017,	8037,	7840,	13.04,	14.68,	13.42,	11.59,	14.41,	2.80,	14.13,	13.60,	6.16,	12.87,	0.76,	1.35,	0.04,	15.10,	1656,	1652
97,	8423,	8284,	7950,	8051,	7434,	8259,	7805,	8521,	8320,	7952,	8084,	8033,	8059,	7867,	13.04,	14.68,	13.42,	11.59,	14.41,	2.80,	14.13,	13.60,	6.16,	12.87,	0.76,	1.35,	0.04,	15.07,	1660,	1660
98,	8433,	8303,	7954,	8050,	7331,	8238,	7800,	8498,	8287,	7994,	8078,	8035,	8065,	7871,	13.04,	14.68,	13.42,	11.59,	14.41,	2.80,	14.13,	13.60,	6.16,	12.87,	0.71,	1.35,	0.04,	15.07,	1663,	1673
99,	8444,	8305,	7955,	8065,	7323,	8213,	7785,	8487,	8278,	7998,	8064,	8044,	8059,	7867,	13.04,	14.68,	13.42,	11.59,	14.41,	2.80,	14.13,	13.60,	6.16,	12.87,	0.71,	1.32,	0.04,	15.07,	1664,	1687
100,	8436,	8288,	7935,	8071,	7390,	8226,	7788,	8489,	8302,	7973,	8057,	8044,	8050,	7859,	13.04,	14.68,	13.42,	11.59,	14.41,	2.80,	14.13,	13.60,	6.16,	12.87,	0.71,	1.32,	0.00,	15.07,	1663,	1699
101,	8414,	8269,	7887,	8046,	7388,	8252,	7819,	8493,	8289,	7916,	8031,	8008,	8038,	7843,	13.04,	14.68,	13.42,	11.59,	14.41,	2.80,	14.13,	13.60,	6.16,	12.87,	0.71,	1.32,	0.00,	15.10,	1662,	1696
102,	8417,	8258,	7870,	8033,	7372,	8243,	7832,	8493,	8283,	7953,	8006,	8001,	8035,	7837,	13.04,	14.68,	13.42,	11.59,	14.41,	2.80,	14.13,	13.60,	6.16,	12.87,	0.71,	1.32,	0.00,	15.10,	1657,	1688
103,	8431,	8266,	7890,	8058,	7377,	8227,	7829,	8497,	8317,	8045,	8010,	8031,	8041,	7842,	13.04,	14.68,	13.42,	11.59,	14.41,	2.80,	14.13,	13.60,	6.16,	12.87,	0.71,	1.32,	0.00,	15.10,	1655,	1679
104,	8415,	8284,	7876,	8070,	7380,	8234,	7839,	8513,	8312,	7938,	8011,	8024,	8043,	7841,	13.04,	14.68,	13.42,	11.59,	14.41,	2.80,	14.13,	13.60,	6.16,	12.87,	0.71,	1.32,	0.04,	15.10,	1652,	1674
105,	8396,	8284,	7838,	8057,	7373,	8244,	7840,	8495,	8266,	7853,	7977,	8002,	8028,	7824,	13.04,	14.68,	13.42,	11.59,	14.41,	2.80,	14.13,	13.60,	6.16,	12.87,	0.71,	1.32,	0.04,	15.05,	1653,	1670
106,	8387,	8260,	7830,	8042,	7404,	8247,	7826,	8442,	8253,	7970,	7948,	8009,	8003,	7807,	13.04,	14.68,	13.42,	11.59,	14.41,	2.80,	14.13,	13.60,	6.16,	12.87,	0.74,	1.32,	0.04,	15.05,	1651,	1669
107,	8370,	8261,	7853,	8048,	7402,	8235,	7804,	8423,	8259,	7973,	7950,	8016,	8003,	7814,	13.04,	14.68,	13.42,	11.59,	14.41,	2.80,	14.13,	13.60,	6.16,	12.87,	0.74,	1.30,	0.04,	15.05,	1653,	1674
108,	8366,	8278,	7898,	8059,	7343,	8219,	7782,	8453,	8258,	7878,	7954,	8013,	8017,	7836,	13.04,	14.68,	13.42,	11.59,	14.41,	2.80,	14.13,	13.60,	6.16,	12.87,	0.74,	1.30,	0.03,	15.05,	1654,	1680
109,	8364,	8262,	7951,	8042,	7327,	8228,	7792,	8474,	8260,	7886,	7952,	8008,	8015,	7848,	13.04,	14.68,	13.42,	11.59,	14.41,	2.80,	14.13,	13.60,	6.16,	12.87,	0.74,	1.30,	0.03,	15.05,	1655,	1688
110,	8345,	8246,	7983,	8029,	7379,	8253,	7828,	8469,	8245,	7883,	7929,	7993,	7992,	7840,	13.04,	14.68,	13.42,	11.59,	14.41,	2.80,	14.13,	13.60,	6.16,	12.87,	0.71,	1.30,	0.03,	15.05,	1654,	1692
111,	8326,	8254,	7989,	8035,	7413,	8272,	7836,	8469,	8237,	7848,	7874,	7966,	7962,	7825,	13.04,	14.68,	13.42,	11.59,	14.41,	2.80,	14.13,	13.60,	6.16,	12.87,	0.71,	1.30,	0.03,	15.05,	1652,	1692
112,	8307,	8236,	7971,	8011,	7349,	8284,	7817,	8479,	8252,	7870,	7838,	7940,	7947,	7815,	13.04,	14.68,	13.42,	11.59,	14.41,	2.80,	14.13,	13.60,	6.16,	12.87,	0.71,	1.30,	0.01,	15.05,	1651,	1677
113,	8295,	8218,	7937,	7994,	7297,	8273,	7809,	8491,	8260,	7886,	7872,	7958,	7973,	7830,	13.04,	14.68,	13.42,	11.59,	14.41,	2.80,	14.13,	13.60,	6.16,	12.87,	0.71,	1.30,	0.01,	15.07,	1647,	1652
114,	8305,	8245,	7919,	8021,	7376,	8245,	7803,	8494,	8265,	7893,	7914,	8006,	8008,	7855,	13.04,	14.68,	13.42,	11.59,	14.41,	2.80,	14.13,	13.60,	6.16,	12.87,	0.76,	1.30,	0.01,	15.07,	1642,	1629
115,	8309,	8249,	7914,	8025,	7451,	8250,	7792,	8495,	8283,	7928,	7906,	8016,	8010,	7854,	13.04,	14.68,	13.42,	11.59,	14.41,	2.80,	14.13,	13.60,	6.16,	12.87,	0.76,	1.30,	0.01,	15.07,	1638,	1614
116,	8292,	8237,	7918,	8007,	7382,	8249,	7775,	8500,	8290,	7923,	7902,	8009,	8010,	7861,	13.04,	14.68,	13.42,	11.59,	14.41,	2.80,	14.13,	13.60,	6.16,	12.87,	0.76,	1.30,	0.04,	15.07,	1637,	1604
117,	8295,	8262,	7965,	8037,	7315,	8216,	7762,	8499,	8279,	7906,	7938,	8040,	8042,	7904,	13.04,	14.68,	13.42,	11.59,	14.41,	2.80,	14.13,	13.60,	6.16,	12.87,	0.76,	1.30,	0.04,	15.08,	1636,	1607
118,	8301,	8275,	8060,	8059,	7385,	8221,	7761,	8491,	8262,	7899,	7951,	8062,	8057,	7929,	13.04,	14.68,	13.42,	11.59,	14.41,	2.80,	14.13,	13.60,	6.16,	12.87,	0.73,	1.30,	0.04,	15.08,	1638,	1618
119,	8268,	8254,	8168,	8026,	7465,	8263,	7753,	8474,	8256,	7895,	7905,	8029,	8033,	7913,	13.04,	14.68,	13.42,	11.59,	14.41,	2.80,	14.13,	13.60,	6.16,	12.87,	0.73,	1.32,	0.04,	15.08,	1641,	1635
120,	8260,	8245,	8282,	8013,	7407,	8268,	7744,	8490,	8290,	7950,	7903,	8017,	8044,	7918,	13.04,	14.68,	13.42,	11.59,	14.41,	2.80,	14.13,	13.60,	6.16,	12.87,	0.73,	1.32,	0.00,	15.08,	1643,	1655
121,	8304,	8273,	8369,	8044,	7244,	8244,	7750,	8530,	8312,	7986,	7968,	8066,	8096,	7962,	13.04,	14.68,	13.42,	11.59,	14.41,	2.80,	14.13,	13.60,	6.16,	12.87,	0.73,	1.32,	0.00,	15.08,	1645,	1668
122,	8326,	8296,	8354,	8047,	7259,	8243,	7760,	8520,	8279,	7953,	7988,	8087,	8117,	7980,	13.04,	14.68,	13.42,	11.59,	14.41,	2.80,	14.13,	13.60,	6.16,	12.87,	0.71,	1.32,	0.00,	15.08,	1644,	1677
123,	8311,	8270,	8245,	8025,	7469,	8262,	7771,	8497,	8248,	7903,	7939,	8050,	8096,	7956,	13.04,	14.68,	13.42,	11.59,	14.41,	2.80,	14.13,	13.60,	6.16,	12.87,	0.71,	1.35,	0.00,	15.08,	1645,	1672
124,	8316,	8247,	8137,	8034,	7502,	8253,	7772,	8504,	8256,	7924,	7903,	8046,	8076,	7942,	13.04,	14.68,	13.42,	11.59,	14.41,	2.80,	14.13,	13.60,	6.16,	12.87,	0.71,	1.35,	0.00,	15.08,	1642,	1666
125,	8339,	8281,	8062,	8068,	7349,	8218,	7759,	8479,	8256,	7959,	7900,	8080,	8066,	7947,	13.04,	14.68,	13.42,	11.59,	14.41,	2.80,	14.13,	13.60,	6.16,	12.87,	0.71,	1.35,	0.00,	15.10,	1641,	1666
126,	8328,	8290,	7987,	8062,	7328,	8224,	7760,	8426,	8226,	7886,	7865,	8068,	8038,	7919,	13.04,	14.68,	13.42,	11.59,	14.41,	2.80,	14.13,	13.60,	6.16,	12.87,	0.71,	1.35,	0.00,	15.10,	1641,	1669
127,	8302,	8253,	7941,	8033,	7430,	8249,	7758,	8422,	8220,	7844,	7807,	8034,	7996,	7875,	13.04,	14.68,	13.42,	11.59,	14.41,	2.80,	14.13,	13.60,	6.16,	12.87,	0.71,	1.33,	0.00,	15.10,	1642,	1676
0,	8312,	8281,	8004,	8064,	7394,	8213,	7724,	8452,	8258,	7926,	7808,	8042,	8010,	7896,	12.98,	14.68,	13.42,	11.59,	14.41,	2.80,	14.13,	13.60,	6.16,	12.87,	0.71,	1.33,	0.00,	15.10,	1643,	1689
1,	8296,	8251,	8041,	8034,	7407,	8235,	7723,	8452,	8230,	7829,	7797,	8017,	8013,	7893,	12.98,	14.68,	13.42,	11.59,	14.41,	2.80,	14.13,	13.60,	6.16,	12.87,	0.71,	1.33,	0.00,	15.10,	1645,	1693
2,	8292,	8257,	8085,	8034,	7335,	8227,	7701,	8443,	8208,	7818,	7759,	7997,	7987,	7894,	12.98,	14.68,	13.41,	11.59,	14.41,	2.80,	14.13,	13.60,	6.16,	12.87,	0.71,	1.33,	0.00,	15.10,	1645,	1694
3,	8317,	8292,	8124,	8066,	7300,	8188,	7676,	8434,	8221,	7863,	7776,	8021,	7999,	7919,	12.98,	14.68,	13.41,	11.56,	14.41,	2.80,	14.13,	13.60,	6.16,	12.87,	0.71,	1.33,	0.00,	15.10,	1643,	1694
4,	8324,	8272,	8133,	8056,	7438,	8196,	7660,	8432,	8233,	7886,	7805,	8040,	8023,	7922,	12.98,	14.68,	13.41,	11.56,	12.33,	2.80,	14.13,	13.60,	6.16,	12.87,	0.71,	1.33,	0.00,	15.10,	1642,	1694
5,	8302,	8234,	8112,	8030,	7465,	8234,	7654,	8433,	8217,	7900,	7778,	8017,	8006,	7896,	12.98,	14.68,	13.41,	11.56,	12.33,	2.81,	14.13,	13.60,	6.16,	12.87,	0.71,	1.33,	0.00,	15.10,	1641,	1690
6,	8299,	8248,	8115,	8044,	7298,	8221,	7658,	8446,	8221,	7895,	7766,	8024,	8006,	7898,	12.98,	14.68,	13.41,	11.56,	12.33,	2.81,	14.13,	13.60,	6.16,	12.87,	0.71,	1.33,	0.00,	15.10,	1639,	1686
7,	8313,	8261,	8146,	8043,	7331,	8192,	7653,	8461,	8252,	7874,	7808,	8063,	8039,	7918,	12.98,	14.68,	13.41,	11.56,	12.33,	2.81,	14.13,	13.59,	6.16,	12.87,	0.71,	1.33,	0.00,	15.10,	1638,	1685
8,	8301,	8247,	8158,	8020,	7467,	8201,	7639,	8467,	8245,	7850,	7800,	8057,	8035,	7914,	12.98,	14.68,	13.41,	11.56,	12.33,	2.81,	14.13,	13.59,	6.21,	12.87,	0.71,	1.33,	0.00,	15.10,	1638,	1686
9,	8287,	8247,	8177,	8036,	7413,	8201,	7627,	8467,	8221,	7873,	7752,	8033,	8004,	7908,	12.98,	14.68,	13.41,	11.56,	12.33,	2.81,	14.13,	13.59,	6.21,	12.90,	0.71,	1.33,	0.00,	15.10,	1638,	1686
10,	8287,	8253,	8219,	8052,	7370,	8194,	7619,	8470,	8229,	7915,	7749,	8031,	8002,	7910,	12.98,	14.68,	13.41,	11.56,	12.33,	2.81,	14.13,	13.59,	6.21,	12.90,	0.93,	1.33,	0.00,	15.10,	1639,	1687
11,	8272,	8241,	8240,	8033,	7370,	8236,	7622,	8478,	8242,	7878,	7758,	8021,	8003,	7899,	12.98,	14.68,	13.41,	11.56,	12.33,	2.81,	14.13,	13.59,	6.21,	12.90,	0.93,	1.33,	0.00,	15.10,	1642,	1683
12,	8273,	8242,	8261,	8040,	7271,	8252,	7616,	8501,	8259,	7842,	7750,	8018,	8004,	7896,	12.98,	14.68,	13.41,	11.56,	12.33,	2.81,	14.13,	13.59,	6.21,	12.90,	0.93,	1.33,	0.00,	15.10,	1642,	1684
13,	8309,	8268,	8305,	8070,	7276,	8209,	7597,	8538,	8295,	7881,	7780,	8052,	8042,	7930,	12.98,	14.68,	13.41,	11.56,	12.33,	2.81,	14.13,	13.59,	6.21,	12.90,	0.93,	1.33,	0.00,	15.07,	1646,	1683
14,	8322,	8256,	8323,	8055,	7420,	8208,	7592,	8537,	8296,	7887,	7813,	8073,	8062,	7953,	12.98,	14.68,	13.41,	11.56,	12.33,	2.81,	14.13,	13.59,	6.21,	12.90,	0.89,	1.33,	0.00,	15.07,	1647,	1681
15,	8311,	8229,	8310,	8038,	7389,	8233,	7595,	8494,	8255,	7875,	7794,	8064,	8037,	7945,	12.98,	14.68,	13.41,	11.56,	12.33,	2.81,	14.13,	13.59,	6.21,	12.90,	0.89,	1.35,	0.00,	15.07,	1649,	1680
16,	8313,	8243,	8307,	8064,	7283,	8211,	7587,	8482,	8250,	7905,	7772,	8062,	8027,	7941,	12.98,	14.68,	13.41,	11.56,	12.33,	2.81,	14.13,	13.59,	6.21,	12.90,	0.89,	1.35,	0.00,	15.07,	1650,	1679
17,	8330,	8258,	8315,	8072,	7358,	8192,	7566,	8505,	8275,	7927,	7775,	8068,	8042,	7951,	12.98,	14.68,	13.41,	11.56,	12.33,	2.81,	14.13,	13.59,	6.21,	12.90,	0.89,	1.35,	0.00,	15.07,	1651,	1680
18,	8349,	8255,	8331,	8063,	7423,	8194,	7559,	8503,	8272,	7922,	7789,	8076,	8047,	7970,	12.98,	14.68,	13.41,	11.56,	12.33,	2.81,	14.13,	13.59,	6.21,	12.90,	0.89,	1.35,	0.00,	15.07,	1651,	1682
19,	8348,	8258,	8342,	8075,	7337,	8185,	7572,	8491,	8259,	7887,	7784,	8076,	8048,	7975,	12.98,	14.68,	13.41,	11.56,	12.33,	2.81,	14.13,	13.59,	6.21,	12.90,	0.89,	1.35,	0.00,	15.07,	1652,	1683
20,	8330,	8251,	8327,	8069,	7265,	8193,	7569,	8468,	8247,	7860,	7758,	8063,	8040,	7956,	12.98,	14.68,	13.41,	11.56,	12.33,	2.81,	14.13,	13.59,	6.21,	12.90,	0.89,	1.35,	0.00,	15.07,	1652,	1680
21,	8329,	8246,	8318,	8048,	7293,	8210,	7552,	8438,	8233,	7866,	7766,	8064,	8036,	7956,	12.98,	14.68,	13.41,	11.56,	12.33,	2.81,	14.13,	13.59,	6.21,	12.90,	0.89,	1.35,	0.00,	15.07,	1652,	1680
22,	8347,	8258,	8340,	8068,	7352,	8194,	7550,	8452,	8243,	7881,	7791,	8081,	8053,	7982,	12.98,	14.68,	13.41,	11.56,	12.33,	2.81,	14.13,	13.59,	6.21,	12.90,	0.89,	1.35,	0.00,	15.07,	1653,	1678
23,	8337,	8240,	8339,	8082,	7416,	8182,	7564,	8476,	8247,	7901,	7752,	8071,	8043,	7983,	12.98,	14.68,	13.41,	11.56,	12.33,	2.81,	14.13,	13.59,	6.21,	12.90,	0.89,	1.35,	0.00,	15.07,	1652,	1678
24,	8325,	8222,	8311,	8067,	7379,	8200,	7573,	8459,	8223,	7888,	7713,	8057,	8023,	7970,	12.98,	14.68,	13.41,	11.56,	12.33,	2.81,	14.13,	13.59,	6.21,	12.90,	0.89,	1.35,	0.00,	15.07,	1653,	1676
25,	8343,	8256,	8312,	8069,	7266,	8196,	7558,	8448,	8219,	7815,	7741,	8069,	8037,	7980,	12.98,	14.68,	13.41,	11.56,	12.33,	2.81,	14.13,	13.59,	6.21,	12.90,	0.89,	1.35,	0.00,	15.07,	1652,	1676
26,	8341,	8260,	8313,	8069,	7299,	8180,	7542,	8468,	8231,	7803,	7734,	8060,	8037,	7976,	12.98,	14.68,	13.41,	11.56,	12.33,	2.81,	14.13,	13.59,	6.21,	12.90,	0.89,	1.35,	0.00,	15.07,	1653,	1679
27,	8317,	8220,	8307,	8053,	7424,	8192,	7543,	8459,	8222,	7881,	7682,	8032,	8004,	7950,	12.98,	14.68,	13.41,	11.56,	12.33,	2.81,	14.13,	13.59,	6.21,	12.90,	0.89,	1.35,	0.00,	15.07,	1652,	1679
28,	8311,	8227,	8328,	8055,	7378,	8200,	7531,	8437,	8229,	7894,	7677,	8034,	7998,	7943,	12.98,	14.68,	13.41,	11.56,	12.33,	2.81,	14.13,	13.59,	6.21,	12.90,	0.89,	1.35,	0.00,	15.07,	1653,	1681
29,	8314,	8260,	8352,	8060,	7253,	8191,	7510,	8448,	8232,	7832,	7698,	8042,	8012,	7954,	12.98,	14.68,	13.41,	11.56,	12.33,	2.81,	14.13,	13.59,	6.21,	12.90,	0.89,	1.35,	0.00,	15.07,	1654,	1681
30,	8313,	8253,	8364,	8053,	7335,	8195,	7517,	8447,	8195,	7813,	7694,	8030,	8008,	7954,	12.98,	14.68,	13.41,	11.56,	12.33,	2.81,	14.13,	13.59,	6.21,	12.90,	0.89,	1.35,	0.00,	15.07,	1655,	1686
31,	8313,	8235,	8385,	8056,	7442,	8185,	7515,	8414,	8181,	7840,	7682,	8033,	8000,	7948,	12.98,	14.68,	13.41,	11.56,	12.33,	2.81,	14.13,	13.59,	6.21,	12.90,	0.89,	1.35,	0.00,	15.07,	1655,	1693
32,	8313,	8242,	8407,	8069,	7382,	8166,	7489,	8399,	8192,	7830,	7692,	8042,	8003,	7957,	12.98,	14.68,	13.41,	11.56,	12.33,	2.81,	14.13,	13.59,	6.21,	12.90,	0.89,	1.35,	0.00,	15.07,	1656,	1699
33,	8317,	8256,	8409,	8071,	7366,	8180,	7487,	8421,	8191,	7827,	7715,	8040,	8016,	7965,	12.98,	14.68,	13.41,	11.56,	12.33,	2.81,	14.13,	13.59,	6.21,	12.90,	0.89,	1.35,	0.00,	15.07,	1658,	1698
34,	8315,	8249,	8403,	8066,	7425,	8199,	7503,	8445,	8214,	7897,	7710,	8043,	8018,	7952,	12.98,	14.68,	13.41,	11.56,	12.33,	2.81,	14.13,	13.59,	6.21,	12.90,	0.89,	1.35,	0.00,	15.07,	1659,	1698
35,	8306,	8229,	8401,	8058,	7407,	8194,	7519,	8463,	8235,	7916,	7674,	8035,	7999,	7945,	12.98,	14.68,	13.41,	11.56,	12.33,	2.81,	14.13,	13.59,	6.21,	12.90,	0.89,	1.35,	0.00,	15.07,	1661,	1699
36,	8312,	8228,	8399,	8054,	7333,	8192,	7528,	8475,	8209,	7825,	7690,	8032,	8012,	7964,	12.98,	14.68,	13.41,	11.56,	12.33,	2.81,	14.13,	13.59,	6.21,	12.90,	0.89,	1.35,	0.00,	15.07,	1661,	1696
37,	8331,	8264,	8404,	8063,	7321,	8191,	7511,	8470,	8196,	7795,	7738,	8067,	8046,	7979,	12.98,	14.68,	13.41,	11.56,	12.33,	2.81,	14.13,	13.59,	6.21,	12.90,	0.89,	1.35,	0.00,	15.07,	1661,	1695
38,	8338,	8283,	8416,	8078,	7371,	8185,	7493,	8457,	8218,	7887,	7737,	8096,	8044,	7979,	12.98,	14.68,	13.41,	11.56,	12.33,	2.81,	14.13,	13.59,	6.21,	12.90,	0.89,	1.35,	0.00,	15.07,	1662,	1692
39,	8338,	8264,	8437,	8085,	7450,	8190,	7492,	8456,	8228,	7920,	7731,	8096,	8042,	7997,	12.98,	14.68,	13.41,	11.56,	12.33,	2.81,	14.13,	13.59,	6.21,	12.90,	0.89,	1.35,	0.00,	15.07,	1662,	1692
40,	8350,	8257,	8476,	8085,	7439,	8200,	7497,	8470,	8248,	7882,	7761,	8112,	8074,	8016,	12.98,	14.68,	13.41,	11.56,	12.33,	2.81,	14.13,	13.59,	6.21,	12.90,	0.89,	1.35,	0.00,	15.07,	1661,	1688
41,	8358,	8281,	8522,	8090,	7327,	8201,	7492,	8464,	8260,	7910,	7788,	8139,	8094,	8019,	12.98,	14.68,	13.41,	11.56,	12.33,	2.81,	14.13,	13.59,	6.21,	12.90,	0.89,	1.35,	0.00,	15.07,	1658,	1687
42,	8354,	8298,	8559,	8095,	7329,	8183,	7480,	8450,	8231,	7925,	7788,	8141,	8112,	8036,	12.98,	14.68,	13.41,	11.56,	12.33,	2.81,	14.13,	13.59,	6.21,	12.90,	0.89,	1.35,	0.00,	15.07,	1654,	1683
43,	8348,	8278,	8584,	8085,	7444,	8176,	7477,	8461,	8215,	7836,	7778,	8134,	8133,	8053,	12.98,	14.68,	13.41,	11.56,	12.33,	2.81,	14.13,	13.59,	6.21,	12.90,	0.89,	1.35,	0.00,	15.07,	1652,	1680
44,	8336,	8257,	8607,	8077,	7441,	8189,	7481,	8459,	8230,	7825,	7780,	8128,	8098,	8017,	12.98,	14.68,	13.41,	11.56,	12.33,	2.81,	14.13,	13.59,	6.21,	12.90,	0.89,	1.35,	0.00,	15.07,	1651,	1676
45,	8320,	8271,	8628,	8084,	7338,	8180,	7479,	8428,	8222,	7940,	7793,	8110,	8051,	7966,	12.98,	14.68,	13.41,	11.56,	12.33,	2.81,	14.13,	13.59,	6.21,	12.90,	0.89,	1.35,	0.00,	15.07,	1647,	1673
46,	8315,	8283,	8639,	8088,	7374,	8155,	7479,	8425,	8207,	7973,	7798,	8107,	8068,	7980,	12.98,	14.68,	13.41,	11.56,	12.33,	2.81,	14.13,	13.59,	6.21,	12.90,	0.89,	1.35,	0.00,	15.07,	1647,	1670
47,	8319,	8263,	8645,	8080,	7430,	8163,	7497,	8468,	8236,	7931,	7796,	8137,	8112,	8023,	12.98,	14.68,	13.41,	11.56,	12.33,	2.81,	14.13,	13.59,	6.21,	12.90,	0.89,	1.35,	0.00,	15.07,	1646,	1668
48,	8325,	8265,	8654,	8080,	7343,	8171,	7490,	8483,	8257,	7951,	7808,	8161,	8125,	8038,	12.98,	14.68,	13.41,	11.56,	12.33,	2.81,	14.13,	13.59,	6.21,	12.90,	0.89,	1.35,	0.00,	15.07,	1645,	1670
49,	8330,	8284,	8660,	8094,	7320,	8143,	7456,	8445,	8236,	7996,	7824,	8166,	8127,	8040,	12.98,	14.68,	13.41,	11.56,	12.33,	2.81,	14.13,	13.59,	6.21,	12.90,	0.89,	1.35,	0.00,	15.07,	1645,	1670
50,	8321,	8265,	8663,	8091,	7400,	8130,	7436,	8419,	8212,	7978,	7825,	8163,	8146,	8044,	12.98,	14.68,	13.41,	11.56,	12.33,	2.81,	14.13,	13.59,	6.21,	12.90,	0.89,	1.35,	0.00,	15.07,	1642,	1671
51,	8310,	8258,	8672,	8079,	7412,	8136,	7437,	8436,	8208,	7935,	7810,	8158,	8166,	8041,	12.98,	14.68,	13.41,	11.56,	12.33,	2.81,	14.13,	13.59,	6.21,	12.90,	0.89,	1.35,	0.00,	15.07,	1642,	1673
52,	8312,	8279,	8684,	8078,	7381,	8130,	7442,	8447,	8203,	7932,	7811,	8160,	8164,	8042,	12.98,	14.68,	13.41,	11.56,	12.33,	2.81,	14.13,	13.59,	6.21,	12.90,	0.89,	1.35,	0.00,	15.07,	1640,	1678
53,	8318,	8268,	8687,	8088,	7392,	8136,	7441,	8427,	8199,	7962,	7837,	8174,	8161,	8045,	12.98,	14.68,	13.41,	11.56,	12.33,	2.81,	14.13,	13.59,	6.21,	12.90,	0.89,	1.35,	0.00,	15.07,	1640,	1682
54,	8318,	8253,	8679,	8087,	7354,	8138,	7435,	8408,	8191,	7967,	7825,	8174,	8164,	8036,	12.98,	14.68,	13.41,	11.56,	12.33,	2.81,	14.13,	13.59,	6.21,	12.90,	0.89,	1.35,	0.00,	15.07,	1638,	1682
55,	8300,	8263,	8653,	8073,	7268,	8105,	7426,	8406,	8171,	7922,	7781,	8148,	8149,	8020,	12.98,	14.68,	13.41,	11.56,	12.33,	2.81,	14.13,	13.59,	6.21,	12.90,	0.89,	1.35,	0.00,	15.07,	1637,	1682
56,	8267,	8237,	8618,	8047,	7275,	8086,	7418,	8400,	8165,	7890,	7768,	8117,	8124,	8003,	12.98,	14.68,	13.41,	11.56,	12.33,	2.81,	14.13,	13.59,	6.21,	12.90,	0.89,	1.35,	0.00,	15.07,	1635,	1683
57,	8245,	8195,	8587,	8028,	7368,	8102,	7391,	8362,	8135,	7856,	7760,	8094,	8093,	7978,	12.98,	14.68,	13.41,	11.56,	12.33,	2.81,	14.13,	13.59,	6.21,	12.90,	0.89,	1.35,	0.00,	15.07,	1632,	1683
58,	8230,	8184,	8552,	8020,	7394,	8102,	7369,	8331,	8086,	7799,	7703,	8055,	8036,	7939,	12.98,	14.68,	13.41,	11.56,	12.33,	2.81,	14.13,	13.59,	6.21,	12.90,	0.89,	1.35,	0.00,	15.07,	1630,	1682
59,	8216,	8180,	8524,	8001,	7309,	8101,	7390,	8345,	8091,	7789,	7652,	8014,	7989,	7909,	12.98,	14.68,	13.41,	11.56,	12.33,	2.81,	14.13,	13.59,	6.21,	12.90,	0.89,	1.35,	0.00,	15.07,	1629,	1681
60,	8228,	8177,	8547,	7999,	7283,	8100,	7402,	8356,	8123,	7835,	7683,	8038,	8009,	7929,	12.98,	14.68,	13.41,	11.56,	12.33,	2.81,	14.13,	13.59,	6.21,	12.90,	0.89,	1.35,	0.00,	15.07,	1628,	1678
61,	8254,	8192,	8596,	8028,	7298,	8068,	7364,	8339,	8124,	7867,	7748,	8105,	8068,	7978,	12.98,	14.68,	13.41,	11.56,	12.33,	2.81,	14.13,	13.59,	6.21,	12.90,	0.89,	1.35,	0.00,	15.07,	1628,	1674
62,	8253,	8198,	8598,	8035,	7283,	8056,	7341,	8339,	8126,	7855,	7743,	8104,	8076,	7982,	12.98,	14.68,	13.41,	11.56,	12.33,	2.81,	14.13,	13.59,	6.21,	12.90,	0.89,	1.35,	0.00,	15.07,	1626,	1673
63,	8235,	8185,	8581,	8012,	7297,	8084,	7369,	8353,	8138,	7847,	7705,	8061,	8037,	7954,	12.98,	14.68,	13.41,	11.56,	12.33,	2.81,	14.13,	13.59,	6.21,	12.90,	0.89,	1.35,	0.00,	15.07,	1626,	1670
64,	8228,	8188,	8600,	8008,	7297,	8082,	7365,	8337,	8118,	7863,	7714,	8064,	8033,	7952,	12.99,	14.68,	13.41,	11.56,	12.33,	2.81,	14.13,	13.59,	6.21,	12.90,	0.89,	1.35,	0.00,	15.07,	1624,	1672
65,	8232,	8200,	8625,	8028,	7294,	8073,	7341,	8322,	8106,	7873,	7732,	8080,	8050,	7957,	12.99,	14.65,	13.41,	11.56,	12.33,	2.81,	14.13,	13.59,	6.21,	12.90,	0.89,	1.35,	0.00,	15.07,	1625,	1673
66,	8230,	8188,	8629,	8027,	7347,	8103,	7360,	8333,	8119,	7846,	7721,	8070,	8043,	7951,	12.99,	14.65,	13.39,	11.56,	12.33,	2.81,	14.13,	13.59,	6.21,	12.90,	0.89,	1.35,	0.00,	15.07,	1623,	1675
67,	8228,	8181,	8646,	8008,	7331,	8114,	7374,	8356,	8128,	7848,	7717,	8062,	8042,	7962,	12.99,	14.65,	13.39,	11.59,	12.33,	2.81,	14.13,	13.59,	6.21,	12.90,	0.89,	1.35,	0.00,	15.07,	1623,	1679
68,	8229,	8187,	8673,	7995,	7263,	8092,	7363,	8373,	8135,	7885,	7706,	8055,	8039,	7959,	12.99,	14.65,	13.39,	11.59,	13.08,	2.81,	14.13,	13.59,	6.21,	12.90,	0.89,	1.35,	0.00,	15.07,	1624,	1678
69,	8217,	8170,	8665,	7994,	7314,	8095,	7366,	8371,	8129,	7828,	7686,	8030,	8015,	7932,	12.99,	14.65,	13.39,	11.59,	13.08,	2.93,	14.13,	13.59,	6.21,	12.90,	0.89,	1.35,	0.00,	15.07,	1623,	1680
70,	8208,	8154,	8649,	7994,	7320,	8107,	7381,	8354,	8100,	7756,	7684,	8014,	8008,	7931,	12.99,	14.65,	13.39,	11.59,	13.08,	2.93,	14.12,	13.59,	6.21,	12.90,	0.89,	1.35,	0.00,	15.07,	1623,	1681
71,	8219,	8179,	8662,	7995,	7235,	8101,	7377,	8351,	8094,	7819,	7674,	8024,	8013,	7944,	12.99,	14.65,	13.39,	11.59,	13.08,	2.93,	14.12,	13.59,	6.21,	12.90,	0.89,	1.35,	0.00,	15.07,	1624,	1684
72,	8224,	8195,	8669,	7997,	7252,	8098,	7348,	8356,	8111,	7881,	7659,	8033,	8006,	7941,	12.99,	14.65,	13.39,	11.59,	13.08,	2.93,	14.12,	13.59,	6.16,	12.90,	0.89,	1.35,	0.00,	15.07,	1626,	1687
73,	8221,	8184,	8649,	7999,	7237,	8099,	7333,	8344,	8101,	7830,	7678,	8036,	8007,	7943,	12.99,	14.65,	13.39,	11.59,	13.08,	2.93,	14.12,	13.59,	6.16,	12.87,	0.89,	1.35,	0.00,	15.07,	1627,	1690
74,	8223,	8188,	8630,	7996,	7181,	8099,	7350,	8342,	8083,	7779,	7691,	8038,	8011,	7945,	12.99,	14.65,	13.39,	11.59,	13.08,	2.93,	14.12,	13.59,	6.16,	12.87,	0.92,	1.35,	0.00,	15.07,	1630,	1694
75,	8225,	8182,	8633,	7988,	7246,	8098,	7360,	8352,	8091,	7789,	7677,	8036,	8011,	7946,	12.99,	14.65,	13.39,	11.59,	13.08,	2.93,	14.12,	13.59,	6.16,	12.87,	0.92,	1.30,	0.00,	15.07,	1631,	1696
76,	8227,	8162,	8639,	7997,	7316,	8095,	7384,	8351,	8101,	7804,	7679,	8032,	8025,	7961,	12.99,	14.65,	13.39,	11.59,	13.08,	2.93,	14.12,	13.59,	6.16,	12.87,	0.92,	1.30,	0.00,	15.07,	1635,	1695
77,	8235,	8174,	8637,	8013,	7287,	8096,	7445,	8351,	8099,	7810,	7686,	8041,	8035,	7978,	12.99,	14.65,	13.39,	11.59,	13.08,	2.93,	14.12,	13.59,	6.16,	12.87,	0.92,	1.30,	0.00,	15.07,	1634,	1689
78,	8250,	8194,	8635,	8009,	7276,	8100,	7477,	8370,	8112,	7831,	7679,	8063,	8036,	7981,	12.99,	14.65,	13.39,	11.59,	13.08,	2.93,	14.12,	13.59,	6.16,	12.87,	0.90,	1.30,	0.00,	15.07,	1635,	1681
79,	8257,	8187,	8633,	8008,	7267,	8103,	7466,	8390,	8128,	7870,	7676,	8067,	8036,	7975,	12.99,	14.65,	13.39,	11.59,	13.08,	2.93,	14.12,	13.59,	6.16,	12.87,	0.90,	1.33,	0.00,	15.07,	1636,	1674
80,	8255,	8190,	8637,	8017,	7246,	8104,	7459,	8387,	8116,	7840,	7679,	8065,	8032,	7980,	12.99,	14.65,	13.39,	11.59,	13.08,	2.93,	14.12,	13.59,	6.16,	12.87,	0.90,	1.33,	0.04,	15.07,	1634,	1675
81,	8263,	8205,	8657,	8021,	7256,	8098,	7449,	8371,	8100,	7760,	7687,	8086,	8048,	7998,	12.99,	14.65,	13.39,	11.59,	13.08,	2.93,	14.12,	13.59,	6.16,	12.87,	0.90,	1.33,	0.04,	15.07,	1635,	1679
82,	8270,	8213,	8676,	8024,	7238,	8093,	7429,	8352,	8096,	7749,	7697,	8099,	8065,	8001,	12.99,	14.65,	13.39,	11.59,	13.08,	2.93,	14.12,	13.59,	6.16,	12.87,	0.90,	1.33,	0.04,	15.07,	1633,	1683
83,	8252,	8218,	8693,	8034,	7294,	8100,	7418,	8337,	8092,	7788,	7688,	8078,	8045,	7979,	12.99,	14.65,	13.39,	11.59,	13.08,	2.93,	14.12,	13.59,	6.16,	12.87,	0.90,	1.33,	0.04,	15.07,	1635,	1683
84,	8241,	8221,	8733,	8047,	7327,	8089,	7415,	8351,	8101,	7837,	7684,	8071,	8034,	7970,	12.99,	14.65,	13.39,	11.59,	13.08,	2.93,	14.12,	13.59,	6.16,	12.87,	0.90,	1.33,	0.04,	15.07,	1635,	1680
85,	8252,	8224,	8772,	8067,	7220,	8071,	7438,	8384,	8128,	7883,	7711,	8099,	8073,	7997,	12.99,	14.65,	13.39,	11.59,	13.08,	2.93,	14.12,	13.59,	6.16,	12.87,	0.90,	1.33,	0.04,	15.08,	1636,	1677
86,	8254,	8227,	8758,	8074,	7223,	8084,	7458,	8403,	8138,	7891,	7730,	8114,	8093,	8016,	12.99,	14.65,	13.39,	11.59,	13.08,	2.93,	14.12,	13.59,	6.16,	12.87,	0.92,	1.33,	0.04,	15.08,	1635,	1673
87,	8240,	8219,	8704,	8045,	7333,	8104,	7444,	8399,	8131,	7849,	7716,	8099,	8066,	8000,	12.99,	14.65,	13.39,	11.59,	13.08,	2.93,	14.12,	13.59,	6.16,	12.87,	0.92,	1.30,	0.04,	15.08,	1636,	1670
88,	8248,	8224,	8679,	8043,	7307,	8109,	7448,	8400,	8136,	7782,	7706,	8091,	8070,	7992,	12.99,	14.65,	13.39,	11.59,	13.08,	2.93,	14.12,	13.59,	6.16,	12.87,	0.92,	1.30,	0.00,	15.08,	1636,	1666
89,	8277,	8251,	8681,	8081,	7233,	8126,	7477,	8419,	8157,	7779,	7717,	8114,	8099,	8007,	12.99,	14.65,	13.39,	11.59,	13.08,	2.93,	14.12,	13.59,	6.16,	12.87,	0.92,	1.30,	0.00,	15.07,	1636,	1669
90,	8293,	8264,	8671,	8093,	7267,	8153,	7493,	8451,	8183,	7887,	7721,	8132,	8092,	8012,	12.99,	14.65,	13.39,	11.59,	13.08,	2.93,	14.12,	13.59,	6.16,	12.87,	0.90,	1.30,	0.00,	15.07,	1637,	1670
91,	8300,	8253,	8675,	8077,	7325,	8163,	7490,	8459,	8196,	7981,	7717,	8124,	8079,	8014,	12.99,	14.65,	13.39,	11.59,	13.08,	2.93,	14.12,	13.59,	6.16,	12.87,	0.90,	1.33,	0.00,	15.07,	1636,	1676
92,	8317,	8260,	8703,	8082,	7343,	8160,	7488,	8443,	8196,	7924,	7722,	8122,	8108,	8034,	12.99,	14.65,	13.39,	11.59,	13.08,	2.93,	14.12,	13.59,	6.16,	12.87,	0.90,	1.33,	0.00,	15.07,	1637,	1675
93,	8340,	8284,	8727,	8109,	7305,	8169,	7500,	8443,	8184,	7831,	7723,	8131,	8131,	8050,	12.99,	14.65,	13.39,	11.59,	13.08,	2.93,	14.12,	13.59,	6.16,	12.87,	0.90,	1.33,	0.00,	15.05,	1636,	1672
94,	8353,	8291,	8735,	8119,	7271,	8190,	7515,	8468,	8174,	7849,	7724,	8131,	8126,	8057,	12.99,	14.65,	13.39,	11.59,	13.08,	2.93,	14.12,	13.59,	6.16,	12.87,	0.93,	1.33,	0.00,	15.05,	1638,	1670
95,	8366,	8287,	8731,	8118,	7342,	8194,	7521,	8498,	8203,	7928,	7730,	8135,	8137,	8072,	12.99,	14.65,	13.39,	11.59,	13.08,	2.93,	14.12,	13.59,	6.16,	12.87,	0.93,	1.32,	0.00,	15.05,	1637,	1667
96,	8374,	8279,	8704,	8119,	7386,	8194,	7516,	8502,	8230,	7942,	7721,	8132,	8132,	8067,	12.99,	14.65,	13.39,	11.59,	13.08,	2.93,	14.12,	13.59,	6.16,	12.87,	0.93,	1.32,	0.00,	15.05,	1639,	1666
97,	8367,	8275,	8674,	8115,	7288,	8196,	7500,	8482,	8205,	7878,	7705,	8122,	8107,	8049,	12.99,	14.65,	13.39,	11.59,	13.08,	2.93,	14.12,	13.59,	6.16,	12.87,	0.93,	1.32,	0.00,	15.05,	1641,	1663
98,	8375,	8277,	8674,	8116,	7203,	8180,	7496,	8490,	8189,	7856,	7719,	8134,	8125,	8060,	12.99,	14.65,	13.39,	11.59,	13.08,	2.93,	14.12,	13.59,	6.16,	12.87,	0.89,	1.32,	0.00,	15.05,	1644,	1664
99,	8389,	8265,	8682,	8114,	7258,	8185,	7517,	8499,	8197,	7885,	7721,	8129,	8136,	8068,	12.99,	14.65,	13.39,	11.59,	13.08,	2.93,	14.12,	13.59,	6.16,	12.87,	0.89,	1.32,	0.00,	15.05,	1645,	1664
100,	8385,	8248,	8687,	8096,	7359,	8207,	7512,	8458,	8186,	7893,	7692,	8105,	8100,	8048,	12.99,	14.65,	13.39,	11.59,	13.08,	2.93,	14.12,	13.59,	6.16,	12.87,	0.89,	1.32,	0.00,	15.05,	1645,	1666
101,	8392,	8266,	8717,	8092,	7359,	8183,	7473,	8431,	8181,	7908,	7702,	8120,	8104,	8054,	12.99,	14.65,	13.39,	11.59,	13.08,	2.93,	14.12,	13.59,	6.16,	12.87,	0.89,	1.32,	0.00,	15.07,	1646,	1667
102,	8407,	8286,	8745,	8116,	7283,	8147,	7453,	8441,	8185,	7926,	7731,	8147,	8141,	8081,	12.99,	14.65,	13.39,	11.59,	13.08,	2.93,	14.12,	13.59,	6.16,	12.87,	0.90,	1.32,	0.00,	15.07,	1643,	1667
103,	8392,	8260,	8725,	8109,	7246,	8162,	7456,	8451,	8191,	7889,	7699,	8112,	8111,	8059,	12.99,	14.65,	13.39,	11.59,	13.08,	2.93,	14.12,	13.59,	6.16,	12.87,	0.90,	1.30,	0.00,	15.07,	1644,	1662
104,	8375,	8242,	8701,	8080,	7253,	8173,	7459,	8472,	8202,	7849,	7670,	8086,	8091,	8041,	12.99,	14.65,	13.39,	11.59,	13.08,	2.93,	14.12,	13.59,	6.16,	12.87,	0.90,	1.30,	0.04,	15.07,	1641,	1661
105,	8391,	8260,	8705,	8097,	7290,	8144,	7463,	8458,	8168,	7881,	7704,	8114,	8128,	8066,	12.99,	14.65,	13.39,	11.59,	13.08,	2.93,	14.12,	13.59,	6.16,	12.87,	0.90,	1.30,	0.04,	15.10,	1640,	1666
106,	8400,	8261,	8696,	8118,	7300,	8121,	7459,	8388,	8124,	7858,	7715,	8122,	8127,	8062,	12.99,	14.65,	13.39,	11.59,	13.08,	2.93,	14.12,	13.59,	6.16,	12.87,	0.93,	1.30,	0.04,	15.10,	1640,	1671
107,	8382,	8249,	8683,	8097,	7243,	8125,	7440,	8360,	8119,	7765,	7669,	8100,	8093,	8037,	12.99,	14.65,	13.39,	11.59,	13.08,	2.93,	14.12,	13.59,	6.16,	12.87,	0.93,	1.30,	0.04,	15.10,	1640,	1675
108,	8368,	8243,	8700,	8080,	7227,	8135,	7434,	8379,	8102,	7801,	7651,	8095,	8084,	8036,	12.99,	14.65,	13.39,	11.59,	13.08,	2.93,	14.12,	13.59,	6.16,	12.87,	0.93,	1.30,	0.03,	15.10,	1641,	1674
109,	8370,	8234,	8735,	8086,	7305,	8126,	7432,	8369,	8075,	7900,	7681,	8099,	8080,	8041,	12.99,	14.65,	13.39,	11.59,	13.08,	2.93,	14.12,	13.59,	6.16,	12.87,	0.93,	1.30,	0.03,	15.05,	1644,	1673
110,	8358,	8218,	8746,	8079,	7332,	8107,	7414,	8367,	8094,	7877,	7692,	8099,	8070,	8034,	12.99,	14.65,	13.39,	11.59,	13.08,	2.93,	14.12,	13.59,	6.16,	12.87,	0.92,	1.30,	0.03,	15.05,	1647,	1669
111,	8341,	8206,	8739,	8073,	7277,	8099,	7399,	8391,	8115,	7798,	7666,	8095,	8072,	8029,	12.99,	14.65,	13.39,	11.59,	13.08,	2.93,	14.12,	13.59,	6.16,	12.87,	0.92,	1.35,	0.03,	15.05,	1651,	1665
112,	8337,	8207,	8732,	8067,	7280,	8104,	7411,	8393,	8098,	7776,	7650,	8076,	8070,	8015,	12.99,	14.65,	13.39,	11.59,	13.08,	2.93,	14.12,	13.59,	6.16,	12.87,	0.92,	1.35,	0.04,	15.05,	1662,	1659
113,	8333,	8214,	8730,	8048,	7275,	8102,	7427,	8381,	8076,	7781,	7653,	8065,	8061,	8004,	12.99,	14.65,	13.39,	11.59,	13.08,	2.93,	14.12,	13.59,	6.16,	12.87,	0.92,	1.35,	0.04,	15.10,	1668,	1660
114,	8334,	8220,	8749,	8046,	7204,	8077,	7400,	8369,	8071,	7811,	7658,	8079,	8065,	8023,	12.99,	14.65,	13.39,	11.59,	13.08,	2.93,	14.12,	13.59,	6.16,	12.87,	0.89,	1.35,	0.04,	15.10,	1672,	1661
115,	8337,	8215,	8786,	8057,	7241,	8061,	7375,	8360,	8073,	7854,	7667,	8082,	8070,	8039,	12.99,	14.65,	13.39,	11.59,	13.08,	2.93,	14.12,	13.59,	6.16,	12.87,	0.89,	1.35,	0.04,	15.10,	1677,	1665
116,	8329,	8197,	8821,	8046,	7332,	8070,	7384,	8341,	8054,	7830,	7659,	8073,	8061,	8022,	12.99,	14.65,	13.39,	11.59,	13.08,	2.93,	14.12,	13.59,	6.16,	12.87,	0.89,	1.35,	0.00,	15.10,	1680,	1668
117,	8310,	8179,	8849,	8027,	7295,	8070,	7387,	8324,	8041,	7779,	7631,	8066,	8044,	7997,	12.99,	14.65,	13.39,	11.59,	13.08,	2.93,	14.12,	13.59,	6.16,	12.87,	0.89,	1.35,	0.00,	15.10,	1684,	1670
118,	8299,	8185,	8867,	8020,	7217,	8064,	7393,	8355,	8075,	7753,	7627,	8059,	8044,	7993,	12.99,	14.65,	13.39,	11.59,	13.08,	2.93,	14.12,	13.59,	6.16,	12.87,	0.90,	1.35,	0.00,	15.10,	1685,	1671
119,	8298,	8195,	8867,	8018,	7216,	8064,	7414,	8386,	8088,	7743,	7633,	8047,	8039,	7990,	12.99,	14.65,	13.39,	11.59,	13.08,	2.93,	14.12,	13.59,	6.16,	12.87,	0.90,	1.33,	0.00,	15.10,	1687,	1671
120,	8292,	8171,	8849,	8014,	7231,	8051,	7402,	8346,	8047,	7747,	7611,	8031,	8019,	7974,	12.99,	14.65,	13.39,	11.59,	13.08,	2.93,	14.12,	13.59,	6.16,	12.87,	0.90,	1.33,	0.03,	15.10,	1688,	1669
121,	8281,	8152,	8829,	7995,	7218,	8044,	7383,	8320,	8033,	7772,	7593,	8013,	8010,	7968,	12.99,	14.65,	13.39,	11.59,	13.08,	2.93,	14.12,	13.59,	6.16,	12.87,	0.90,	1.33,	0.03,	15.10,	1687,	1671
122,	8280,	8157,	8815,	7983,	7217,	8060,	7408,	8358,	8049,	7811,	7594,	8004,	8012,	7976,	12.99,	14.65,	13.39,	11.59,	13.08,	2.93,	14.12,	13.59,	6.16,	12.87,	0.89,	1.33,	0.03,	15.10,	1689,	1674
123,	8283,	8145,	8807,	7991,	7234,	8064,	7407,	8347,	8029,	7813,	7579,	8011,	8008,	7967,	12.99,	14.65,	13.39,	11.59,	13.08,	2.93,	14.12,	13.59,	6.16,	12.87,	0.89,	1.35,	0.03,	15.10,	1686,	1677
124,	8265,	8118,	8790,	7972,	7242,	8061,	7380,	8278,	7997,	7752,	7554,	8011,	7996,	7949,	12.99,	14.65,	13.39,	11.59,	13.08,	2.93,	14.12,	13.59,	6.16,	12.87,	0.89,	1.35,	0.00,	15.10,	1686,	1680
125,	8246,	8131,	8780,	7941,	7211,	8067,	7390,	8276,	8012,	7698,	7565,	7996,	7989,	7952,	12.99,	14.65,	13.39,	11.59,	13.08,	2.93,	14.12,	13.59,	6.16,	12.87,	0.89,	1.35,	0.00,	15.08,	1686,	1680
126,	8259,	8164,	8809,	7961,	7206,	8067,	7413,	8333,	8053,	7743,	7585,	8004,	8007,	7969,	12.99,	14.65,	13.39,	11.59,	13.08,	2.93,	14.12,	13.59,	6.16,	12.87,	0.90,	1.35,	0.00,	15.08,	1686,	1681
127,	8290,	8171,	8858,	7998,	7245,	8064,	7425,	8343,	8046,	7795,	7596,	8049,	8033,	8002,	12.99,	14.65,	13.39,	11.59,	13.08,	2.93,	14.12,	13.59,	6.16,	12.87,	0.90,	1.32,	0.00,	15.08,	1686,	1681
0,	8298,	8156,	8826,	8000,	7188,	8072,	7432,	8370,	8075,	7802,	7667,	8055,	8062,	8016,	12.98,	14.65,	13.39,	11.59,	13.08,	2.93,	14.12,	13.59,	6.16,	12.87,	0.90,	1.32,	0.00,	15.08,	1686,	1680
1,	8285,	8182,	8797,	8028,	7193,	8071,	7423,	8356,	8085,	7862,	7654,	8040,	8072,	7988,	12.98,	14.68,	13.39,	11.59,	13.08,	2.93,	14.12,	13.59,	6.16,	12.87,	0.90,	1.32,	0.00,	15.08,	1685,	1679
2,	8293,	8190,	8800,	8048,	7180,	8070,	7423,	8313,	8057,	7863,	7652,	8064,	8075,	8008,	12.98,	14.68,	13.44,	11.59,	13.08,	2.93,	14.12,	13.59,	6.16,	12.87,	0.90,	1.32,	0.00,	15.08,	1684,	1675
3,	8312,	8164,	8800,	8056,	7225,	8080,	7446,	8352,	8083,	7853,	7670,	8080,	8108,	8045,	12.98,	14.68,	13.44,	11.59,	13.08,	2.93,	14.12,	13.59,	6.16,	12.87,	0.90,	1.32,	0.00,	15.08,	1682,	1671
4,	8309,	8154,	8786,	8047,	7297,	8101,	7468,	8394,	8115,	7880,	7669,	8070,	8144,	8041,	12.98,	14.68,	13.44,	11.59,	13.21,	2.93,	14.12,	13.59,	6.16,	12.87,	0.90,	1.32,	0.00,	15.08,	1681,	1668
5,	8303,	8173,	8783,	8055,	7227,	8107,	7467,	8347,	8078,	7869,	7673,	8068,	8141,	8026,	12.98,	14.68,	13.44,	11.59,	13.21,	2.95,	14.12,	13.59,	6.16,	12.87,	0.90,	1.32,	0.00,	15.08,	1677,	1665
6,	8316,	8176,	8785,	8088,	7145,	8091,	7466,	8327,	8054,	7837,	7691,	8071,	8143,	8025,	12.98,	14.68,	13.44,	11.59,	13.21,	2.95,	14.13,	13.59,	6.16,	12.87,	0.90,	1.32,	0.00,	15.08,	1675,	1665
7,	8315,	8156,	8773,	8109,	7229,	8082,	7479,	8367,	8086,	7847,	7693,	8061,	8168,	8026,	12.98,	14.68,	13.44,	11.59,	13.21,	2.95,	14.13,	13.61,	6.16,	12.87,	0.90,	1.32,	0.00,	15.08,	1673,	1667
8,	8289,	8141,	8757,	8090,	7283,	8097,	7495,	8368,	8098,	7855,	7687,	8039,	8162,	8010,	12.98,	14.68,	13.44,	11.59,	13.21,	2.95,	14.13,	13.61,	6.21,	12.87,	0.90,	1.32,	0.00,	15.08,	1669,	1671
9,	8272,	8127,	8746,	8059,	7228,	8110,	7492,	8339,	8084,	7831,	7676,	8022,	8141,	7987,	12.98,	14.68,	13.44,	11.59,	13.21,	2.95,	14.13,	13.61,	6.21,	12.86,	0.90,	1.32,	0.00,	15.08,	1668,	1671
10,	8272,	8115,	8743,	8065,	7206,	8098,	7472,	8328,	8064,	7805,	7666,	8017,	8136,	7978,	12.98,	14.68,	13.44,	11.59,	13.21,	2.95,	14.13,	13.61,	6.21,	12.86,	0.89,	1.32,	0.00,	15.08,	1665,	1670
11,	8255,	8092,	8729,	8076,	7176,	8061,	7453,	8317,	8039,	7769,	7663,	8007,	8124,	7964,	12.98,	14.68,	13.44,	11.59,	13.21,	2.95,	14.13,	13.61,	6.21,	12.86,	0.89,	1.32,	0.00,	15.08,	1663,	1666
12,	8227,	8078,	8706,	8057,	7155,	8051,	7463,	8312,	8027,	7760,	7661,	7989,	8107,	7950,	12.98,	14.68,	13.44,	11.59,	13.21,	2.95,	14.13,	13.61,	6.21,	12.86,	0.89,	1.32,	0.04,	15.08,	1662,	1663
13,	8204,	8056,	8676,	8029,	7217,	8052,	7470,	8288,	7991,	7784,	7630,	7957,	8074,	7927,	12.98,	14.68,	13.44,	11.59,	13.21,	2.95,	14.13,	13.61,	6.21,	12.86,	0.89,	1.32,	0.04,	15.08,	1662,	1658
14,	8128,	7952,	8583,	7975,	7232,	7971,	7398,	8209,	7916,	7719,	7518,	7857,	7962,	7837,	12.98,	14.68,	13.44,	11.59,	13.21,	2.95,	14.13,	13.61,	6.21,	12.86,	0.92,	1.32,	0.04,	15.08,	1660,	1657
15,	7995,	7813,	8441,	7878,	7142,	7853,	7287,	8102,	7829,	7542,	7371,	7709,	7813,	7702,	12.98,	14.68,	13.44,	11.59,	13.21,	2.95,	14.13,	13.61,	6.21,	12.86,	0.92,	1.35,	0.04,	15.08,	1660,	1659
16,	7919,	7760,	8384,	7832,	7099,	7794,	7214,	8014,	7765,	7458,	7329,	7649,	7759,	7640,	12.98,	14.68,	13.44,	11.59,	13.21,	2.95,	14.13,	13.61,	6.21,	12.86,	0.92,	1.35,	0.04,	15.08,	1659,	1661
17,	7916,	7758,	8400,	7845,	7067,	7751,	7171,	7968,	7741,	7486,	7353,	7657,	7765,	7642,	12.98,	14.68,	13.44,	11.59,	13.21,	2.95,	14.13,	13.61,	6.21,	12.86,	0.92,	1.35,	0.04,	15.08,	1660,	1663
18,	7891,	7712,	8375,	7810,	6971,	7691,	7128,	7933,	7706,	7439,	7302,	7607,	7707,	7598,	12.98,	14.68,	13.44,	11.59,	13.21,	2.95,	14.13,	13.61,	6.21,	12.86,	0.92,	1.35,	0.04,	15.08,	1661,	1662
19,	7853,	7669,	8342,	7771,	6967,	7652,	7105,	7886,	7640,	7370,	7235,	7552,	7637,	7546,	12.98,	14.68,	13.44,	11.59,	13.21,	2.95,	14.13,	13.61,	6.21,	12.86,	0.92,	1.35,	0.04,	15.08,	1661,	1661
20,	7845,	7666,	8344,	7782,	7050,	7634,	7103,	7864,	7612,	7387,	7236,	7555,	7624,	7541,	12.98,	14.68,	13.44,	11.59,	13.21,	2.95,	14.13,	13.61,	6.21,	12.86,	0.92,	1.35,	0.04,	15.08,	1662,	1662
21,	7834,	7652,	8320,	7774,	7061,	7613,	7093,	7865,	7615,	7345,	7223,	7539,	7610,	7521,	12.98,	14.68,	13.44,	11.59,	13.21,	2.95,	14.13,	13.61,	6.21,	12.86,	0.92,	1.35,	0.04,	15.08,	1662,	1662
22,	7803,	7620,	8250,	7729,	6981,	7605,	7085,	7835,	7576,	7218,	7177,	7484,	7564,	7476,	12.98,	14.68,	13.44,	11.59,	13.21,	2.95,	14.13,	13.61,	6.21,	12.86,	0.92,	1.35,	0.04,	15.08,	1662,	1662
23,	7785,	7602,	8204,	7707,	6911,	7598,	7090,	7798,	7539,	7204,	7160,	7465,	7537,	7463,	12.98,	14.68,	13.44,	11.59,	13.21,	2.95,	14.13,	13.61,	6.21,	12.86,	0.92,	1.35,	0.04,	15.08,	1660,	1662
24,	7789,	7598,	8203,	7708,	6960,	7580,	7103,	7807,	7557,	7318,	7162,	7477,	7533,	7473,	12.98,	14.68,	13.44,	11.59,	13.21,	2.95,	14.13,	13.61,	6.21,	12.86,	0.92,	1.35,	0.04,	15.08,	1660,	1662
25,	7785,	7588,	8207,	7692,	7025,	7567,	7107,	7815,	7570,	7346,	7160,	7463,	7536,	7470,	12.98,	14.68,	13.44,	11.59,	13.21,	2.95,	14.13,	13.61,	6.21,	12.86,	0.92,	1.35,	0.04,	15.08,	1658,	1663
26,	7771,	7578,	8196,	7672,	6957,	7568,	7101,	7802,	7553,	7257,	7158,	7437,	7533,	7462,	12.98,	14.68,	13.44,	11.59,	13.21,	2.95,	14.13,	13.61,	6.21,	12.86,	0.92,	1.35,	0.04,	15.08,	1657,	1665
27,	7773,	7569,	8194,	7663,	6915,	7571,	7109,	7812,	7539,	7229,	7151,	7443,	7513,	7461,	12.98,	14.68,	13.44,	11.59,	13.21,	2.95,	14.13,	13.61,	6.21,	12.86,	0.92,	1.35,	0.04,	15.08,	1655,	1665
28,	7789,	7574,	8212,	7653,	6970,	7567,	7117,	7817,	7531,	7278,	7147,	7465,	7502,	7467,	12.98,	14.68,	13.44,	11.59,	13.21,	2.95,	14.13,	13.61,	6.21,	12.86,	0.92,	1.35,	0.04,	15.08,	1653,	1665
29,	7791,	7584,	8222,	7638,	6904,	7569,	7108,	7787,	7522,	7277,	7145,	7450,	7507,	7467,	12.98,	14.68,	13.44,	11.59,	13.21,	2.95,	14.13,	13.61,	6.21,	12.86,	0.92,	1.35,	0.04,	15.08,	1651,	1663
30,	7785,	7592,	8224,	7632,	6846,	7573,	7098,	7781,	7531,	7259,	7154,	7437,	7509,	7464,	12.98,	14.68,	13.44,	11.59,	13.21,	2.95,	14.13,	13.61,	6.21,	12.86,	0.92,	1.35,	0.04,	15.08,	1646,	1662
31,	7797,	7608,	8242,	7637,	6932,	7565,	7101,	7803,	7555,	7292,	7176,	7474,	7517,	7478,	12.98,	14.68,	13.44,	11.59,	13.21,	2.95,	14.13,	13.61,	6.21,	12.86,	0.92,	1.35,	0.04,	15.08,	1645,	1656
32,	7817,	7608,	8262,	7631,	6954,	7561,	7108,	7812,	7555,	7257,	7189,	7511,	7551,	7505,	12.98,	14.68,	13.44,	11.59,	13.21,	2.95,	14.13,	13.61,	6.21,	12.86,	0.92,	1.35,	0.04,	15.08,	1641,	1653
33,	7821,	7575,	8268,	7614,	6891,	7566,	7106,	7814,	7538,	7197,	7185,	7494,	7566,	7512,	12.98,	14.68,	13.44,	11.59,	13.21,	2.95,	14.13,	13.61,	6.21,	12.86,	0.92,	1.35,	0.04,	15.08,	1639,	1652
34,	7798,	7565,	8263,	7606,	6897,	7570,	7100,	7828,	7553,	7290,	7183,	7464,	7532,	7485,	12.98,	14.68,	13.44,	11.59,	13.21,	2.95,	14.13,	13.61,	6.21,	12.86,	0.92,	1.35,	0.04,	15.08,	1637,	1651
35,	7774,	7594,	8263,	7614,	6933,	7571,	7101,	7833,	7583,	7374,	7180,	7467,	7512,	7467,	12.98,	14.68,	13.44,	11.59,	13.21,	2.95,	14.13,	13.61,	6.21,	12.86,	0.92,	1.35,	0.04,	15.08,	1637,	1652
36,	7785,	7604,	8287,	7632,	6917,	7565,	7114,	7834,	7587,	7332,	7182,	7478,	7536,	7476,	12.98,	14.68,	13.44,	11.59,	13.21,	2.95,	14.13,	13.61,	6.21,	12.86,	0.92,	1.35,	0.04,	15.08,	1636,	1653
37,	7808,	7595,	8311,	7634,	6897,	7569,	7113,	7839,	7564,	7307,	7182,	7476,	7547,	7484,	12.98,	14.68,	13.44,	11.59,	13.21,	2.95,	14.13,	13.61,	6.21,	12.86,	0.92,	1.35,	0.04,	15.08,	1636,	1656
38,	7807,	7594,	8302,	7616,	6895,	7586,	7100,	7831,	7531,	7290,	7155,	7468,	7526,	7468,	12.98,	14.68,	13.44,	11.59,	13.21,	2.95,	14.13,	13.61,	6.21,	12.86,	0.92,	1.35,	0.04,	15.08,	1635,	1669
39,	7796,	7589,	8296,	7602,	6921,	7582,	7101,	7820,	7528,	7253,	7144,	7466,	7522,	7462,	12.98,	14.68,	13.44,	11.59,	13.21,	2.95,	14.13,	13.61,	6.21,	12.86,	0.92,	1.35,	0.04,	15.08,	1636,	1672
40,	7798,	7586,	8309,	7605,	6895,	7572,	7099,	7810,	7541,	7277,	7164,	7467,	7534,	7465,	12.98,	14.68,	13.44,	11.59,	13.21,	2.95,	14.13,	13.61,	6.21,	12.86,	0.92,	1.35,	0.04,	15.08,	1635,	1673
41,	7807,	7593,	8299,	7610,	6864,	7590,	7104,	7817,	7532,	7296,	7158,	7468,	7530,	7454,	12.98,	14.68,	13.44,	11.59,	13.21,	2.95,	14.13,	13.61,	6.21,	12.86,	0.92,	1.35,	0.04,	15.08,	1636,	1672
42,	7815,	7594,	8274,	7600,	6925,	7607,	7141,	7851,	7537,	7270,	7139,	7465,	7521,	7454,	12.98,	14.68,	13.44,	11.59,	13.21,	2.95,	14.13,	13.61,	6.21,	12.86,	0.92,	1.35,	0.04,	15.08,	1636,	1671
43,	7823,	7591,	8266,	7587,	6965,	7597,	7152,	7866,	7565,	7310,	7148,	7470,	7528,	7465,	12.98,	14.68,	13.44,	11.59,	13.21,	2.95,	14.13,	13.61,	6.21,	12.86,	0.92,	1.35,	0.04,	15.08,	1638,	1669
44,	7817,	7588,	8250,	7587,	6944,	7592,	7119,	7842,	7563,	7333,	7155,	7472,	7531,	7450,	12.98,	14.68,	13.44,	11.59,	13.21,	2.95,	14.13,	13.61,	6.21,	12.86,	0.92,	1.35,	0.04,	15.08,	1638,	1668
45,	7810,	7589,	8220,	7604,	6920,	7600,	7114,	7830,	7542,	7268,	7147,	7465,	7528,	7442,	12.98,	14.68,	13.44,	11.59,	13.21,	2.95,	14.13,	13.61,	6.21,	12.86,	0.92,	1.35,	0.04,	15.08,	1641,	1667
46,	7830,	7602,	8227,	7618,	6911,	7609,	7142,	7856,	7557,	7276,	7165,	7482,	7548,	7468,	12.98,	14.68,	13.44,	11.59,	13.21,	2.95,	14.13,	13.61,	6.21,	12.86,	0.92,	1.35,	0.04,	15.08,	1641,	1665
47,	7852,	7621,	8265,	7613,	6885,	7627,	7146,	7886,	7588,	7345,	7190,	7505,	7569,	7480,	12.98,	14.68,	13.44,	11.59,	13.21,	2.95,	14.13,	13.61,	6.21,	12.86,	0.92,	1.35,	0.04,	15.08,	1643,	1666
48,	7848,	7627,	8290,	7612,	6895,	7629,	7127,	7895,	7596,	7364,	7188,	7509,	7569,	7477,	12.98,	14.68,	13.44,	11.59,	13.21,	2.95,	14.13,	13.61,	6.21,	12.86,	0.92,	1.35,	0.04,	15.08,	1645,	1664
49,	7851,	7620,	8308,	7621,	6944,	7609,	7114,	7877,	7590,	7365,	7180,	7513,	7567,	7497,	12.98,	14.68,	13.44,	11.59,	13.21,	2.95,	14.13,	13.61,	6.21,	12.86,	0.92,	1.35,	0.04,	15.08,	1644,	1663
50,	7862,	7625,	8330,	7622,	6896,	7591,	7115,	7857,	7585,	7362,	7185,	7516,	7573,	7505,	12.98,	14.68,	13.44,	11.59,	13.21,	2.95,	14.13,	13.61,	6.21,	12.86,	0.92,	1.35,	0.04,	15.08,	1646,	1660
51,	7855,	7633,	8339,	7608,	6858,	7603,	7143,	7868,	7591,	7322,	7185,	7504,	7571,	7477,	12.98,	14.68,	13.44,	11.59,	13.21,	2.95,	14.13,	13.61,	6.21,	12.86,	0.92,	1.35,	0.04,	15.08,	1644,	1660
52,	7845,	7612,	8340,	7588,	6918,	7636,	7188,	7908,	7603,	7266,	7171,	7492,	7564,	7462,	12.98,	14.68,	13.44,	11.59,	13.21,	2.95,	14.13,	13.61,	6.21,	12.86,	0.92,	1.35,	0.04,	15.08,	1646,	1663
53,	7848,	7590,	8355,	7576,	6964,	7657,	7197,	7924,	7598,	7295,	7164,	7497,	7561,	7480,	12.98,	14.68,	13.44,	11.59,	13.21,	2.95,	14.13,	13.61,	6.21,	12.86,	0.92,	1.35,	0.04,	15.08,	1645,	1667
54,	7859,	7609,	8378,	7591,	6959,	7649,	7171,	7892,	7587,	7376,	7186,	7510,	7573,	7501,	12.98,	14.68,	13.44,	11.59,	13.21,	2.95,	14.13,	13.61,	6.21,	12.86,	0.92,	1.35,	0.04,	15.08,	1645,	1672
55,	7879,	7647,	8396,	7616,	6914,	7629,	7175,	7877,	7603,	7378,	7225,	7534,	7606,	7519,	12.98,	14.68,	13.44,	11.59,	13.21,	2.95,	14.13,	13.61,	6.21,	12.86,	0.92,	1.35,	0.04,	15.08,	1644,	1675
56,	7898,	7662,	8407,	7615,	6878,	7618,	7197,	7904,	7628,	7343,	7242,	7558,	7629,	7541,	12.98,	14.68,	13.44,	11.59,	13.21,	2.95,	14.13,	13.61,	6.21,	12.86,	0.92,	1.35,	0.04,	15.08,	1645,	1677
57,	7895,	7649,	8403,	7596,	6917,	7625,	7206,	7920,	7626,	7375,	7229,	7551,	7625,	7554,	12.98,	14.68,	13.44,	11.59,	13.21,	2.95,	14.13,	13.61,	6.21,	12.86,	0.92,	1.35,	0.04,	15.08,	1643,	1677
58,	7886,	7628,	8381,	7587,	6967,	7641,	7223,	7919,	7619,	7399,	7226,	7537,	7618,	7549,	12.98,	14.68,	13.44,	11.59,	13.21,	2.95,	14.13,	13.61,	6.21,	12.86,	0.92,	1.35,	0.04,	15.08,	1642,	1677
59,	7896,	7634,	8358,	7591,	6922,	7652,	7243,	7916,	7615,	7349,	7232,	7538,	7626,	7544,	12.98,	14.68,	13.44,	11.59,	13.21,	2.95,	14.13,	13.61,	6.21,	12.86,	0.92,	1.35,	0.04,	15.08,	1642,	1669
60,	7900,	7656,	8341,	7582,	6911,	7659,	7272,	7905,	7608,	7338,	7216,	7536,	7626,	7536,	12.98,	14.68,	13.44,	11.59,	13.21,	2.95,	14.13,	13.61,	6.21,	12.86,	0.92,	1.35,	0.04,	15.08,	1639,	1663
61,	7892,	7655,	8331,	7574,	6959,	7660,	7308,	7907,	7632,	7384,	7215,	7541,	7617,	7539,	12.98,	14.68,	13.44,	11.59,	13.21,	2.95,	14.13,	13.61,	6.21,	12.86,	0.92,	1.35,	0.04,	15.08,	1639,	1655
62,	7905,	7654,	8338,	7584,	6896,	7651,	7321,	7919,	7657,	7421,	7246,	7562,	7623,	7560,	12.98,	14.68,	13.44,	11.59,	13.21,	2.95,	14.13,	13.61,	6.21,	12.86,	0.92,	1.35,	0.04,	15.08,	1636,	1650
63,	7915,	7667,	8349,	7590,	6856,	7668,	7333,	7917,	7638,	7404,	7240,	7554,	7623,	7557,	12.98,	14.68,	13.44,	11.59,	13.21,	2.95,	14.13,	13.61,	6.21,	12.86,	0.92,	1.35,	0.04,	15.08,	1637,	1649
64,	7914,	7661,	8371,	7580,	6931,	7697,	7350,	7918,	7634,	7354,	7213,	7533,	7625,	7543,	13.07,	14.68,	13.44,	11.59,	13.21,	2.95,	14.13,	13.61,	6.21,	12.86,	0.92,	1.35,	0.04,	15.08,	1636,	1648
65,	7925,	7654,	8421,	7565,	6990,	7694,	7324,	7911,	7645,	7344,	7228,	7539,	7641,	7554,	13.07,	14.64,	13.44,	11.59,	13.21,	2.95,	14.13,	13.61,	6.21,	12.86,	0.92,	1.35,	0.04,	15.08,	1635,	1651
66,	7931,	7676,	8473,	7568,	6949,	7679,	7286,	7919,	7656,	7377,	7246,	7539,	7643,	7562,	13.07,	14.64,	13.42,	11.59,	13.21,	2.95,	14.13,	13.61,	6.21,	12.86,	0.92,	1.35,	0.04,	15.08,	1636,	1654
67,	7931,	7708,	8518,	7605,	6877,	7684,	7283,	7962,	7679,	7419,	7249,	7547,	7641,	7564,	13.07,	14.64,	13.42,	11.60,	13.21,	2.95,	14.13,	13.61,	6.21,	12.86,	0.92,	1.35,	0.04,	15.08,	1637,	1655
68,	7945,	7721,	8564,	7641,	6925,	7696,	7284,	7966,	7681,	7446,	7271,	7586,	7668,	7589,	13.07,	14.64,	13.42,	11.60,	13.99,	2.95,	14.13,	13.61,	6.21,	12.86,	0.92,	1.35,	0.04,	15.08,	1638,	1655
69,	7966,	7721,	8582,	7641,	6993,	7717,	7290,	7947,	7669,	7458,	7288,	7607,	7696,	7608,	13.07,	14.64,	13.42,	11.60,	13.99,	2.93,	14.13,	13.61,	6.21,	12.86,	0.92,	1.35,	0.04,	15.08,	1639,	1657
70,	7966,	7728,	8548,	7633,	6939,	7751,	7305,	7966,	7674,	7452,	7262,	7585,	7677,	7596,	13.07,	14.64,	13.42,	11.60,	13.99,	2.93,	14.12,	13.61,	6.21,	12.86,	0.92,	1.35,	0.04,	15.08,	1643,	1658
71,	7956,	7727,	8500,	7638,	6889,	7761,	7313,	7980,	7666,	7439,	7233,	7572,	7650,	7586,	13.07,	14.64,	13.42,	11.60,	13.99,	2.93,	14.12,	13.59,	6.21,	12.86,	0.92,	1.35,	0.04,	15.08,	1643,	1661
72,	7963,	7721,	8475,	7647,	6922,	7744,	7320,	7975,	7651,	7431,	7251,	7590,	7665,	7593,	13.07,	14.64,	13.42,	11.60,	13.99,	2.93,	14.12,	13.59,	6.16,	12.86,	0.92,	1.35,	0.04,	15.08,	1647,	1662
73,	7976,	7730,	8461,	7655,	6946,	7742,	7318,	7977,	7672,	7416,	7278,	7606,	7690,	7594,	13.07,	14.64,	13.42,	11.60,	13.99,	2.93,	14.12,	13.59,	6.16,	12.83,	0.92,	1.35,	0.04,	15.08,	1648,	1662
74,	7981,	7745,	8449,	7661,	6956,	7764,	7316,	7981,	7688,	7421,	7281,	7600,	7691,	7592,	13.07,	14.64,	13.42,	11.60,	13.99,	2.93,	14.12,	13.59,	6.16,	12.83,	0.89,	1.35,	0.04,	15.08,	1651,	1666
75,	7990,	7737,	8440,	7662,	6972,	7776,	7328,	8013,	7696,	7445,	7273,	7591,	7686,	7595,	13.07,	14.64,	13.42,	11.60,	13.99,	2.93,	14.12,	13.59,	6.16,	12.83,	0.89,	1.30,	0.04,	15.08,	1652,	1668
76,	7993,	7724,	8421,	7666,	6945,	7781,	7350,	8032,	7703,	7480,	7280,	7596,	7684,	7594,	13.07,	14.64,	13.42,	11.60,	13.99,	2.93,	14.12,	13.59,	6.16,	12.83,	0.89,	1.30,	0.03,	15.08,	1653,	1670
77,	7983,	7731,	8411,	7677,	6927,	7793,	7365,	7999,	7687,	7503,	7294,	7610,	7683,	7599,	13.07,	14.64,	13.42,	11.60,	13.99,	2.93,	14.12,	13.59,	6.16,	12.83,	0.89,	1.30,	0.03,	15.07,	1655,	1667
78,	7996,	7756,	8427,	7692,	6942,	7787,	7364,	8016,	7704,	7507,	7313,	7629,	7708,	7623,	13.07,	14.64,	13.42,	11.60,	13.99,	2.93,	14.12,	13.59,	6.16,	12.83,	0.89,	1.30,	0.03,	15.07,	1656,	1666
79,	8024,	7782,	8444,	7703,	6939,	7774,	7346,	8059,	7751,	7505,	7330,	7647,	7740,	7642,	13.07,	14.64,	13.42,	11.60,	13.99,	2.93,	14.12,	13.59,	6.16,	12.83,	0.89,	1.33,	0.03,	15.07,	1660,	1663
80,	8025,	7789,	8442,	7720,	6943,	7787,	7342,	8027,	7742,	7503,	7347,	7664,	7748,	7647,	13.07,	14.64,	13.42,	11.60,	13.99,	2.93,	14.12,	13.59,	6.16,	12.83,	0.89,	1.33,	0.03,	15.07,	1661,	1662
81,	8023,	7784,	8451,	7741,	6991,	7808,	7367,	8008,	7714,	7506,	7374,	7687,	7761,	7665,	13.07,	14.64,	13.42,	11.60,	13.99,	2.93,	14.12,	13.59,	6.16,	12.83,	0.89,	1.33,	0.03,	15.10,	1664,	1662
82,	8041,	7788,	8467,	7745,	7036,	7812,	7387,	8044,	7730,	7515,	7381,	7695,	7773,	7688,	13.07,	14.64,	13.42,	11.60,	13.99,	2.93,	14.12,	13.59,	6.16,	12.83,	0.93,	1.33,	0.03,	15.10,	1665,	1664
83,	8048,	7806,	8471,	7740,	7026,	7807,	7377,	8036,	7741,	7508,	7372,	7695,	7765,	7690,	13.07,	14.64,	13.42,	11.60,	13.99,	2.93,	14.12,	13.59,	6.16,	12.83,	0.93,	1.32,	0.03,	15.10,	1669,	1667
84,	8035,	7807,	8469,	7736,	6985,	7819,	7392,	8003,	7719,	7490,	7370,	7692,	7748,	7672,	13.07,	14.64,	13.42,	11.60,	13.99,	2.93,	14.12,	13.59,	6.16,	12.83,	0.93,	1.32,	0.00,	15.10,	1668,	1669
85,	8017,	7781,	8456,	7712,	6969,	7841,	7440,	8022,	7711,	7506,	7344,	7665,	7722,	7650,	13.07,	14.64,	13.42,	11.60,	13.99,	2.93,	14.12,	13.59,	6.16,	12.83,	0.93,	1.32,	0.00,	15.05,	1669,	1670
86,	8017,	7773,	8446,	7705,	6968,	7826,	7445,	8058,	7752,	7549,	7332,	7651,	7721,	7656,	13.07,	14.64,	13.42,	11.60,	13.99,	2.93,	14.12,	13.59,	6.16,	12.83,	0.90,	1.32,	0.00,	15.05,	1669,	1668
87,	8036,	7802,	8451,	7730,	6959,	7799,	7436,	8064,	7779,	7549,	7367,	7678,	7762,	7684,	13.07,	14.64,	13.42,	11.60,	13.99,	2.93,	14.12,	13.59,	6.16,	12.83,	0.90,	1.30,	0.00,	15.05,	1667,	1668
88,	8038,	7809,	8436,	7724,	6974,	7811,	7502,	8079,	7761,	7516,	7380,	7693,	7781,	7691,	13.07,	14.64,	13.42,	11.60,	13.99,	2.93,	14.12,	13.59,	6.16,	12.83,	0.90,	1.30,	0.03,	15.05,	1666,	1668
89,	8027,	7792,	8395,	7703,	6992,	7825,	7590,	8113,	7767,	7534,	7359,	7682,	7767,	7684,	13.07,	14.64,	13.42,	11.60,	13.99,	2.93,	14.12,	13.59,	6.16,	12.83,	0.90,	1.30,	0.03,	15.08,	1663,	1668
90,	8041,	7816,	8385,	7725,	7010,	7834,	7631,	8111,	7810,	7574,	7385,	7701,	7784,	7703,	13.07,	14.64,	13.42,	11.60,	13.99,	2.93,	14.12,	13.59,	6.16,	12.83,	0.93,	1.30,	0.03,	15.08,	1661,	1663
91,	8070,	7855,	8411,	7757,	7053,	7881,	7675,	8092,	7818,	7584,	7442,	7747,	7826,	7744,	13.07,	14.64,	13.42,	11.60,	13.99,	2.93,	14.12,	13.59,	6.16,	12.83,	0.93,	1.35,	0.03,	15.08,	1657,	1659
92,	8092,	7877,	8440,	7763,	7066,	7926,	7734,	8116,	7810,	7595,	7468,	7779,	7860,	7773,	13.07,	14.64,	13.42,	11.60,	13.99,	2.93,	14.12,	13.59,	6.16,	12.83,	0.93,	1.35,	0.03,	15.08,	1655,	1655
93,	8104,	7903,	8462,	7768,	7043,	7928,	7756,	8161,	7834,	7640,	7482,	7785,	7885,	7780,	13.07,	14.64,	13.42,	11.60,	13.99,	2.93,	14.12,	13.59,	6.16,	12.83,	0.93,	1.35,	0.03,	15.05,	1652,	1651
