=====================
  Detection Session  
=====================
Name:		Ahmed Hemaly
Source:		Session_2014_05_06_84005/[T][2014-05-06 23-31-56] Ahmed Hemaly.csv
Date:		2014-05-10 21:37:47
Trials:		10
PreTime:	3
RecTime:	4
PostTime:	4
Classifier:	LEASTSQUARES
AvgDetectTime:	0.141533660889
Triggers:	5259, 6781, 8304, 9827, 11349, 12872, 14395, 15918, 17441, 18963
Directions:	1, 2, 1, 1, 1, 1, 1, 1, 1, 1
ClassesTypes:	1, 1, 2, 1, 2, 2, 2, 1, 2, 1
ClassesNames:	RIGHT, LEFT

RawData:
Count,	F3,	FC5,	AF3,	F7,	T7,	P7,	O1,	O2,	P8,	T8,	F8,	AF4,	FC6,	F4,	Q_F3,	Q_FC5,	Q_AF3,	Q_F7,	Q_T7,	Q_P7,	Q_O1,	Q_O2,	Q_P8,	Q_T8,	Q_F8,	Q_AF4,	Q_FC6,	Q_F4,	GyroX,	GyroY
63,	8210,	7872,	7960,	8338,	8832,	8472,	8562,	8486,	8200,	8293,	8784,	8824,	8371,	8942,	14.25,	11.38,	13.17,	13.97,	12.24,	14.55,	1.42,	12.25,	0.00,	0.00,	0.00,	0.00,	0.00,	0.00,	1696,	1685
64,	8181,	7849,	7936,	8320,	8810,	8443,	8514,	8448,	8177,	8276,	8773,	8797,	8366,	8921,	14.25,	11.38,	13.17,	13.97,	12.24,	14.55,	1.42,	12.25,	0.00,	0.00,	0.00,	0.00,	0.00,	0.00,	1696,	1686
65,	8173,	7845,	7944,	8325,	8816,	8455,	8512,	8457,	8170,	8291,	8784,	8799,	8373,	8919,	14.25,	11.38,	13.17,	13.97,	12.24,	14.55,	1.42,	12.25,	0.00,	0.00,	0.00,	0.00,	0.00,	0.00,	1697,	1686
66,	8209,	7867,	7978,	8350,	8840,	8478,	8553,	8475,	8176,	8316,	8810,	8840,	8393,	8954,	14.25,	11.38,	13.17,	13.97,	12.24,	14.55,	1.42,	12.25,	0.00,	0.00,	0.00,	0.00,	0.00,	0.00,	1695,	1687
67,	8245,	7897,	7999,	8375,	8856,	8480,	8571,	8449,	8168,	8303,	8827,	8881,	8411,	8989,	14.25,	11.38,	13.17,	13.97,	12.24,	14.55,	1.42,	12.25,	0.00,	0.00,	0.00,	0.00,	0.00,	0.00,	1696,	1688
68,	8249,	7907,	8009,	8383,	8857,	8474,	8546,	8426,	8161,	8286,	8829,	8894,	8411,	8998,	14.25,	11.38,	13.17,	13.97,	12.24,	14.55,	1.42,	12.25,	9.08,	0.00,	0.00,	0.00,	0.00,	0.00,	1696,	1687
69,	8245,	7894,	8014,	8375,	8851,	8477,	8542,	8444,	8156,	8291,	8817,	8890,	8406,	8995,	14.25,	11.38,	13.17,	13.97,	12.24,	14.55,	1.42,	12.25,	9.08,	0.00,	0.00,	0.00,	0.00,	0.00,	1695,	1689
70,	8246,	7884,	8004,	8366,	8850,	8485,	8576,	8460,	8143,	8286,	8803,	8877,	8402,	8990,	14.25,	11.38,	13.17,	13.97,	12.24,	14.55,	1.42,	12.25,	9.08,	0.00,	0.00,	0.00,	0.00,	0.00,	1697,	1687
71,	8242,	7883,	7997,	8361,	8851,	8488,	8579,	8457,	8147,	8279,	8811,	8870,	8400,	8986,	14.25,	11.38,	13.17,	13.97,	12.24,	14.55,	1.42,	12.25,	9.08,	0.00,	0.00,	0.00,	0.00,	0.00,	1696,	1689
72,	8223,	7875,	7990,	8351,	8847,	8470,	8537,	8458,	8164,	8289,	8817,	8870,	8396,	8981,	14.25,	11.38,	13.17,	13.97,	12.24,	14.55,	1.42,	12.25,	9.08,	11.54,	15.13,	12.90,	14.50,	10.87,	1696,	1688
73,	8204,	7864,	7970,	8342,	8843,	8447,	8511,	8453,	8158,	8288,	8795,	8853,	8383,	8968,	14.25,	11.38,	13.17,	13.97,	12.24,	14.55,	1.42,	12.25,	9.08,	11.54,	15.13,	12.90,	14.50,	10.87,	1696,	1688
74,	8215,	7867,	7971,	8347,	8845,	8462,	8551,	8459,	8146,	8279,	8782,	8849,	8385,	8967,	14.25,	11.38,	13.17,	13.97,	12.24,	14.55,	1.42,	12.25,	9.08,	11.54,	15.13,	12.90,	14.50,	10.87,	1697,	1689
75,	8237,	7875,	7988,	8354,	8849,	8489,	8591,	8489,	8163,	8292,	8796,	8866,	8401,	8979,	14.25,	11.38,	13.17,	13.97,	12.24,	14.55,	1.42,	12.25,	9.08,	11.54,	15.13,	12.90,	14.50,	10.87,	1697,	1688
76,	8228,	7869,	7978,	8350,	8844,	8473,	8544,	8474,	8165,	8291,	8795,	8853,	8388,	8968,	14.25,	11.38,	13.17,	13.97,	12.24,	14.55,	1.42,	12.25,	9.08,	11.54,	15.13,	12.90,	14.50,	10.87,	1697,	1689
77,	8210,	7864,	7962,	8350,	8846,	8455,	8515,	8431,	8144,	8262,	8778,	8830,	8366,	8940,	14.25,	11.38,	13.17,	13.97,	12.24,	14.55,	1.42,	12.25,	9.08,	11.54,	15.13,	12.90,	14.50,	10.87,	1696,	1689
78,	8215,	7878,	7967,	8360,	8858,	8479,	8573,	8446,	8145,	8255,	8770,	8836,	8371,	8934,	14.25,	11.38,	13.17,	13.97,	12.24,	14.55,	1.42,	12.25,	9.08,	11.54,	15.13,	12.90,	14.50,	10.87,	1696,	1689
79,	8224,	7887,	7972,	8355,	8857,	8489,	8589,	8481,	8161,	8280,	8773,	8842,	8383,	8952,	14.25,	11.38,	13.17,	13.97,	12.24,	14.55,	1.42,	12.25,	9.08,	11.54,	15.13,	12.90,	14.50,	10.87,	1696,	1688
80,	8216,	7868,	7962,	8343,	8844,	8457,	8525,	8470,	8162,	8287,	8784,	8835,	8383,	8951,	14.25,	11.38,	13.17,	13.97,	12.24,	14.55,	1.42,	12.25,	9.08,	11.54,	15.13,	12.90,	14.50,	10.87,	1695,	1689
81,	8202,	7850,	7960,	8345,	8834,	8443,	8503,	8446,	8158,	8276,	8787,	8845,	8388,	8939,	14.25,	11.38,	13.17,	13.97,	12.24,	14.55,	1.42,	12.25,	9.08,	11.54,	15.13,	12.90,	14.50,	10.87,	1696,	1687
82,	8211,	7865,	7981,	8359,	8851,	8467,	8541,	8442,	8159,	8277,	8790,	8866,	8400,	8949,	14.25,	11.38,	13.17,	13.97,	12.24,	14.55,	1.42,	12.25,	9.08,	11.54,	15.13,	12.90,	14.50,	10.87,	1694,	1689
83,	8237,	7886,	8001,	8372,	8876,	8478,	8563,	8455,	8159,	8282,	8805,	8881,	8405,	8974,	14.25,	11.38,	13.17,	13.97,	12.24,	14.55,	1.42,	12.25,	9.08,	11.54,	15.13,	12.90,	14.50,	10.87,	1695,	1688
84,	8253,	7885,	8006,	8381,	8880,	8490,	8583,	8485,	8174,	8279,	8821,	8898,	8406,	8998,	14.25,	11.38,	13.17,	13.97,	12.24,	14.55,	1.42,	12.25,	9.08,	11.54,	15.13,	12.90,	14.50,	10.87,	1694,	1689
85,	8262,	7870,	8009,	8379,	8872,	8511,	8602,	8507,	8197,	8285,	8826,	8909,	8412,	9010,	14.25,	11.38,	13.17,	13.97,	12.24,	14.55,	1.42,	12.25,	9.08,	11.54,	15.13,	12.90,	14.50,	10.87,	1694,	1690
86,	8263,	7863,	8010,	8363,	8870,	8501,	8575,	8498,	8196,	8285,	8820,	8900,	8412,	9006,	14.25,	11.38,	13.17,	13.97,	12.24,	14.55,	1.42,	12.25,	9.08,	11.54,	15.16,	12.87,	14.50,	10.87,	1694,	1688
87,	8262,	7877,	8008,	8363,	8876,	8488,	8557,	8490,	8187,	8277,	8813,	8891,	8402,	8999,	14.25,	11.38,	13.17,	13.97,	12.24,	14.55,	1.42,	12.25,	9.08,	11.54,	15.16,	12.87,	14.50,	10.87,	1694,	1689
88,	8267,	7896,	8008,	8382,	8887,	8512,	8607,	8512,	8207,	8294,	8820,	8895,	8409,	9003,	14.25,	11.38,	13.17,	13.97,	12.24,	14.55,	1.42,	12.25,	9.08,	11.54,	15.16,	12.87,	14.50,	10.87,	1693,	1688
89,	8260,	7885,	8000,	8380,	8889,	8520,	8619,	8523,	8229,	8320,	8819,	8893,	8415,	9002,	14.25,	11.38,	13.17,	13.97,	12.24,	14.55,	1.42,	12.25,	9.08,	11.54,	15.16,	12.87,	14.50,	10.89,	1694,	1688
90,	8229,	7859,	7977,	8355,	8875,	8490,	8562,	8497,	8223,	8321,	8801,	8873,	8392,	8983,	14.25,	11.38,	13.17,	13.97,	12.24,	14.55,	1.42,	12.25,	9.08,	11.54,	15.14,	12.87,	14.50,	10.89,	1693,	1688
91,	8215,	7855,	7963,	8346,	8869,	8487,	8553,	8488,	8218,	8309,	8789,	8859,	8382,	8974,	14.25,	11.38,	13.17,	13.97,	12.24,	14.55,	1.42,	12.25,	9.08,	11.54,	15.14,	12.87,	14.50,	10.89,	1694,	1688
92,	8232,	7872,	7976,	8363,	8881,	8509,	8586,	8512,	8227,	8310,	8791,	8868,	8404,	8993,	14.25,	11.38,	13.17,	13.97,	12.24,	14.55,	1.42,	12.25,	9.08,	11.54,	15.14,	12.87,	14.49,	10.89,	1693,	1688
93,	8243,	7880,	7993,	8380,	8886,	8515,	8596,	8509,	8233,	8321,	8805,	8888,	8417,	9013,	14.25,	11.38,	13.17,	13.97,	12.24,	14.55,	1.42,	12.25,	9.08,	11.54,	15.14,	12.87,	14.49,	10.84,	1693,	1689
94,	8240,	7861,	7995,	8374,	8867,	8509,	8590,	8481,	8224,	8312,	8819,	8894,	8409,	9009,	14.25,	11.38,	13.17,	13.97,	12.24,	14.55,	1.42,	12.25,	9.08,	11.54,	15.14,	12.87,	14.49,	10.84,	1692,	1690
95,	8237,	7849,	7981,	8357,	8853,	8495,	8574,	8479,	8220,	8287,	8812,	8883,	8403,	8998,	14.25,	11.38,	13.17,	13.97,	12.24,	14.55,	1.42,	12.25,	9.08,	11.54,	15.14,	12.89,	14.49,	10.84,	1692,	1690
96,	8229,	7853,	7975,	8358,	8856,	8487,	8558,	8485,	8220,	8278,	8800,	8881,	8395,	8993,	14.25,	11.38,	13.17,	13.97,	12.24,	14.55,	1.42,	12.25,	9.08,	11.54,	15.14,	12.89,	14.49,	10.84,	1692,	1690
97,	8212,	7839,	7971,	8362,	8862,	8496,	8583,	8471,	8204,	8265,	8772,	8867,	8362,	8981,	14.25,	11.38,	13.17,	13.97,	12.24,	14.55,	1.42,	12.25,	9.08,	11.54,	15.14,	12.89,	14.49,	10.89,	1692,	1691
98,	8174,	7799,	7925,	8310,	8843,	8497,	8594,	8443,	8163,	8214,	8703,	8809,	8309,	8946,	14.25,	11.38,	13.17,	13.97,	12.24,	14.55,	1.42,	12.25,	9.08,	11.54,	15.14,	12.89,	14.49,	10.89,	1692,	1691
99,	8118,	7754,	7863,	8234,	8798,	8465,	8538,	8406,	8124,	8167,	8659,	8755,	8265,	8905,	14.25,	11.38,	13.17,	13.97,	12.24,	14.55,	1.42,	12.25,	9.08,	11.54,	15.14,	12.89,	14.49,	10.89,	1692,	1692
100,	8096,	7735,	7849,	8225,	8784,	8452,	8515,	8405,	8134,	8183,	8695,	8762,	8275,	8898,	14.25,	11.38,	13.17,	13.97,	12.24,	14.55,	1.42,	12.25,	9.08,	11.54,	15.14,	12.89,	14.50,	10.89,	1693,	1693
101,	8147,	7768,	7900,	8281,	8827,	8485,	8567,	8468,	8199,	8258,	8767,	8818,	8346,	8946,	14.25,	11.38,	13.17,	13.97,	12.24,	14.55,	1.42,	12.25,	9.08,	11.54,	15.14,	12.89,	14.50,	10.89,	1691,	1693
102,	8238,	7846,	7985,	8349,	8891,	8538,	8638,	8543,	8271,	8350,	8854,	8898,	8441,	9030,	14.25,	11.38,	13.17,	13.97,	12.24,	14.55,	1.42,	12.25,	9.08,	11.54,	15.14,	12.89,	14.50,	10.89,	1694,	1693
103,	8294,	7903,	8043,	8401,	8920,	8580,	8690,	8574,	8305,	8406,	8928,	8963,	8503,	9091,	14.25,	11.38,	13.17,	13.97,	12.24,	14.55,	1.42,	12.25,	9.08,	11.54,	15.14,	12.89,	14.50,	10.89,	1692,	1693
104,	8285,	7894,	8034,	8403,	8906,	8574,	8684,	8563,	8296,	8393,	8917,	8964,	8487,	9092,	14.25,	11.38,	13.17,	13.97,	12.24,	14.55,	1.42,	12.25,	9.08,	11.54,	15.14,	12.89,	14.46,	10.89,	1692,	1694
105,	8237,	7847,	7993,	8359,	8878,	8513,	8593,	8521,	8258,	8334,	8851,	8919,	8427,	9048,	14.25,	11.38,	13.17,	13.97,	12.24,	14.55,	1.42,	12.25,	9.08,	11.54,	15.14,	12.89,	14.46,	10.86,	1693,	1692
106,	8210,	7821,	7967,	8335,	8861,	8471,	8522,	8470,	8217,	8291,	8824,	8890,	8394,	9012,	14.25,	11.38,	13.17,	13.97,	12.24,	14.55,	1.42,	12.25,	9.08,	11.54,	15.14,	12.89,	14.46,	10.86,	1693,	1692
107,	8228,	7844,	7970,	8365,	8881,	8510,	8589,	8471,	8222,	8302,	8845,	8899,	8404,	9024,	14.25,	11.38,	13.17,	13.97,	12.24,	14.55,	1.42,	12.25,	9.08,	11.54,	15.14,	12.87,	14.46,	10.86,	1693,	1690
108,	8245,	7872,	7982,	8382,	8906,	8557,	8670,	8518,	8255,	8337,	8857,	8912,	8427,	9050,	14.25,	11.38,	13.17,	13.97,	12.24,	14.55,	1.42,	12.25,	9.08,	11.54,	15.14,	12.87,	14.49,	10.86,	1694,	1690
109,	8226,	7848,	7974,	8349,	8881,	8534,	8628,	8523,	8249,	8337,	8831,	8900,	8417,	9044,	14.25,	11.38,	13.17,	13.97,	12.24,	14.55,	1.42,	12.25,	9.08,	11.54,	15.14,	12.87,	14.49,	10.84,	1694,	1690
110,	8204,	7818,	7958,	8328,	8847,	8490,	8566,	8478,	8214,	8289,	8810,	8880,	8383,	9019,	14.25,	11.38,	13.17,	13.97,	12.24,	14.55,	1.42,	12.25,	9.08,	11.54,	15.14,	12.87,	14.49,	10.84,	1693,	1693
111,	8216,	7832,	7964,	8352,	8874,	8503,	8589,	8472,	8220,	8268,	8829,	8888,	8389,	9019,	14.25,	11.38,	13.17,	13.97,	12.24,	14.55,	1.42,	12.25,	9.08,	11.54,	15.14,	12.87,	14.49,	10.84,	1695,	1693
112,	8245,	7857,	7990,	8377,	8897,	8543,	8644,	8514,	8250,	8314,	8856,	8919,	8428,	9050,	14.25,	11.38,	13.17,	13.97,	12.24,	14.55,	1.42,	12.25,	9.08,	11.54,	15.14,	12.87,	14.46,	10.84,	1693,	1694
113,	8253,	7858,	7997,	8370,	8878,	8556,	8667,	8535,	8256,	8349,	8850,	8926,	8432,	9073,	14.25,	11.38,	13.17,	13.97,	12.24,	14.55,	1.42,	12.25,	9.08,	11.54,	15.14,	12.87,	14.46,	10.89,	1694,	1696
114,	8243,	7853,	7982,	8362,	8881,	8553,	8665,	8532,	8256,	8331,	8829,	8907,	8406,	9063,	14.25,	11.38,	13.17,	13.97,	12.24,	14.55,	1.42,	12.25,	9.08,	11.54,	15.13,	12.87,	14.46,	10.89,	1692,	1696
115,	8225,	7841,	7971,	8356,	8893,	8538,	8642,	8521,	8250,	8302,	8813,	8890,	8386,	9038,	14.25,	11.38,	13.17,	13.97,	12.24,	14.55,	1.42,	12.25,	9.08,	11.54,	15.13,	12.89,	14.46,	10.89,	1692,	1697
116,	8214,	7821,	7957,	8337,	8875,	8516,	8622,	8514,	8227,	8286,	8786,	8871,	8369,	9033,	14.25,	11.38,	13.17,	13.97,	12.24,	14.55,	1.42,	12.25,	9.08,	11.54,	15.13,	12.89,	14.49,	10.89,	1691,	1695
117,	8228,	7824,	7952,	8331,	8877,	8526,	8636,	8520,	8233,	8291,	8781,	8869,	8375,	9058,	14.25,	11.38,	13.17,	13.97,	12.24,	14.55,	1.42,	12.25,	9.08,	11.54,	15.13,	12.89,	14.49,	10.84,	1690,	1695
118,	8231,	7829,	7952,	8329,	8881,	8542,	8643,	8523,	8255,	8310,	8820,	8887,	8407,	9071,	14.25,	11.38,	13.17,	13.97,	12.24,	14.55,	1.42,	12.25,	9.08,	11.54,	15.16,	12.89,	14.49,	10.84,	1689,	1694
119,	8216,	7811,	7943,	8313,	8863,	8527,	8623,	8497,	8250,	8320,	8863,	8896,	8424,	9059,	14.25,	11.38,	13.17,	13.97,	12.24,	14.55,	1.42,	12.25,	9.08,	11.54,	15.16,	12.90,	14.49,	10.84,	1689,	1694
120,	8221,	7800,	7942,	8303,	8866,	8519,	8606,	8464,	8240,	8326,	8891,	8898,	8430,	9063,	14.25,	11.38,	13.17,	13.97,	12.24,	14.55,	1.42,	12.25,	9.08,	11.54,	15.16,	12.90,	14.49,	10.84,	1689,	1693
121,	8231,	7801,	7941,	8294,	8881,	8523,	8605,	8465,	8251,	8339,	8914,	8904,	8440,	9073,	14.25,	11.38,	13.17,	13.97,	12.24,	14.55,	1.42,	12.25,	9.08,	11.54,	15.16,	12.90,	14.49,	10.86,	1688,	1693
122,	8218,	7801,	7938,	8276,	8881,	8521,	8611,	8494,	8258,	8333,	8921,	8911,	8443,	9071,	14.25,	11.38,	13.17,	13.97,	12.24,	14.55,	1.42,	12.25,	9.08,	11.54,	15.16,	12.90,	14.49,	10.86,	1688,	1691
123,	8203,	7784,	7930,	8259,	8873,	8520,	8604,	8487,	8242,	8319,	8901,	8912,	8428,	9067,	14.25,	11.38,	13.17,	13.97,	12.24,	14.55,	1.42,	12.25,	9.08,	11.54,	15.16,	12.86,	14.49,	10.86,	1685,	1691
124,	8195,	7758,	7911,	8246,	8859,	8521,	8603,	8441,	8221,	8311,	8880,	8900,	8407,	9050,	14.25,	11.38,	13.17,	13.97,	12.24,	14.55,	1.42,	12.25,	9.08,	11.54,	15.16,	12.86,	14.50,	10.86,	1687,	1690
125,	8181,	7757,	7895,	8241,	8847,	8506,	8603,	8431,	8213,	8292,	8873,	8882,	8398,	9027,	14.25,	11.38,	13.17,	13.97,	12.24,	14.55,	1.42,	12.25,	9.08,	11.54,	15.16,	12.86,	14.50,	10.89,	1685,	1690
126,	8174,	7773,	7892,	8251,	8845,	8474,	8567,	8449,	8222,	8278,	8874,	8875,	8398,	9021,	14.25,	11.38,	13.17,	13.97,	12.24,	14.55,	1.42,	12.25,	9.08,	11.54,	15.16,	12.86,	14.50,	10.89,	1685,	1692
127,	8189,	7785,	7904,	8269,	8852,	8482,	8573,	8459,	8227,	8298,	8877,	8890,	8410,	9045,	14.25,	11.38,	13.17,	13.97,	12.24,	14.55,	1.42,	12.25,	9.08,	11.54,	15.16,	12.87,	14.50,	10.89,	1686,	1691
0,	8205,	7776,	7926,	8269,	8870,	8508,	8628,	8489,	8228,	8299,	8903,	8916,	8418,	9072,	14.22,	11.38,	13.17,	13.97,	12.24,	14.55,	1.42,	12.25,	9.08,	11.54,	15.16,	12.87,	14.50,	10.89,	1686,	1690
1,	8207,	7782,	7927,	8288,	8872,	8490,	8599,	8514,	8259,	8310,	8908,	8925,	8425,	9074,	14.22,	11.66,	13.17,	13.97,	12.24,	14.55,	1.42,	12.25,	9.08,	11.54,	15.16,	12.87,	14.50,	10.89,	1685,	1690
2,	8237,	7810,	7950,	8308,	8880,	8527,	8660,	8559,	8292,	8356,	8915,	8946,	8451,	9091,	14.22,	11.66,	13.16,	13.97,	12.24,	14.55,	1.42,	12.25,	9.08,	11.54,	15.16,	12.87,	14.50,	10.89,	1686,	1689
3,	8247,	7819,	7960,	8301,	8889,	8540,	8680,	8582,	8296,	8378,	8920,	8951,	8458,	9102,	14.22,	11.66,	13.16,	13.93,	12.24,	14.55,	1.42,	12.25,	9.08,	11.54,	15.16,	12.87,	14.50,	10.89,	1686,	1688
4,	8234,	7798,	7943,	8296,	8881,	8495,	8587,	8541,	8277,	8357,	8912,	8945,	8445,	9100,	14.22,	11.66,	13.16,	13.93,	12.07,	14.55,	1.42,	12.25,	9.08,	11.54,	15.16,	12.87,	14.50,	10.89,	1686,	1688
5,	8236,	7791,	7939,	8304,	8875,	8491,	8566,	8498,	8269,	8337,	8918,	8950,	8457,	9108,	14.22,	11.66,	13.16,	13.93,	12.07,	14.55,	1.42,	12.25,	9.08,	11.54,	15.16,	12.87,	14.50,	10.89,	1685,	1689
6,	8243,	7799,	7946,	8301,	8881,	8518,	8605,	8493,	8274,	8351,	8932,	8954,	8475,	9120,	14.22,	11.66,	13.16,	13.93,	12.07,	14.55,	1.44,	12.25,	9.08,	11.54,	15.16,	12.87,	14.50,	10.89,	1686,	1688
7,	8252,	7812,	7957,	8307,	8897,	8526,	8614,	8512,	8290,	8389,	8945,	8959,	8486,	9130,	14.22,	11.66,	13.16,	13.93,	12.07,	14.55,	1.44,	12.24,	9.08,	11.54,	15.16,	12.87,	14.50,	10.89,	1686,	1688
8,	8281,	7836,	7981,	8335,	8917,	8549,	8651,	8536,	8315,	8417,	8966,	8982,	8510,	9153,	14.22,	11.66,	13.16,	13.93,	12.07,	14.55,	1.44,	12.24,	9.11,	11.54,	15.16,	12.87,	14.50,	10.89,	1686,	1689
9,	8294,	7852,	7993,	8343,	8914,	8573,	8692,	8542,	8323,	8413,	8963,	8987,	8517,	9163,	14.22,	11.66,	13.16,	13.93,	12.07,	14.55,	1.44,	12.24,	9.11,	11.50,	15.16,	12.87,	14.50,	10.89,	1688,	1687
10,	8274,	7838,	7986,	8331,	8887,	8558,	8684,	8530,	8303,	8395,	8943,	8970,	8501,	9149,	14.22,	11.66,	13.16,	13.93,	12.07,	14.55,	1.44,	12.24,	9.11,	11.50,	15.05,	12.87,	14.50,	10.89,	1687,	1688
11,	8261,	7821,	7986,	8323,	8875,	8534,	8650,	8513,	8280,	8375,	8944,	8973,	8490,	9143,	14.22,	11.66,	13.16,	13.93,	12.07,	14.55,	1.44,	12.24,	9.11,	11.50,	15.05,	12.83,	14.50,	10.89,	1688,	1687
12,	8280,	7830,	8000,	8331,	8891,	8529,	8631,	8509,	8279,	8368,	8965,	8997,	8500,	9159,	14.22,	11.66,	13.16,	13.93,	12.07,	14.55,	1.44,	12.24,	9.11,	11.50,	15.05,	12.83,	14.50,	10.89,	1688,	1686
13,	8315,	7854,	8022,	8355,	8900,	8544,	8646,	8541,	8304,	8396,	8987,	9019,	8530,	9181,	14.22,	11.66,	13.16,	13.93,	12.07,	14.55,	1.44,	12.24,	9.11,	11.50,	15.05,	12.83,	14.50,	10.76,	1688,	1686
14,	8314,	7852,	8025,	8357,	8894,	8552,	8668,	8566,	8319,	8417,	8980,	9014,	8533,	9179,	14.22,	11.66,	13.16,	13.93,	12.07,	14.55,	1.44,	12.24,	9.11,	11.50,	15.05,	12.83,	14.50,	10.76,	1688,	1686
15,	8279,	7824,	8003,	8330,	8882,	8530,	8643,	8537,	8297,	8392,	8954,	8987,	8498,	9147,	14.22,	11.66,	13.16,	13.93,	12.07,	14.55,	1.44,	12.24,	9.11,	11.50,	15.05,	12.84,	14.50,	10.76,	1690,	1685
16,	8279,	7816,	8003,	8336,	8876,	8519,	8619,	8503,	8278,	8370,	8954,	8988,	8494,	9142,	14.22,	11.66,	13.16,	13.93,	12.07,	14.55,	1.44,	12.24,	9.11,	11.50,	15.05,	12.84,	14.50,	10.76,	1690,	1685
17,	8304,	7831,	8015,	8352,	8887,	8535,	8640,	8521,	8289,	8388,	8962,	9008,	8515,	9163,	14.22,	11.66,	13.16,	13.93,	12.07,	14.55,	1.44,	12.24,	9.11,	11.50,	15.05,	12.84,	14.50,	10.76,	1691,	1684
18,	8294,	7830,	8004,	8332,	8897,	8537,	8642,	8552,	8308,	8405,	8953,	9005,	8507,	9166,	14.22,	11.66,	13.16,	13.93,	12.07,	14.55,	1.44,	12.24,	9.11,	11.50,	15.05,	12.84,	14.50,	10.76,	1691,	1686
19,	8275,	7820,	8008,	8328,	8893,	8529,	8630,	8552,	8313,	8393,	8954,	8987,	8494,	9152,	14.22,	11.66,	13.16,	13.93,	12.07,	14.55,	1.44,	12.24,	9.11,	11.50,	15.05,	12.84,	14.50,	10.76,	1692,	1685
20,	8262,	7809,	8005,	8335,	8881,	8517,	8628,	8520,	8297,	8375,	8947,	8968,	8487,	9123,	14.22,	11.66,	13.16,	13.93,	12.07,	14.55,	1.44,	12.24,	9.11,	11.50,	15.05,	12.84,	14.50,	10.76,	1692,	1686
21,	8251,	7790,	7975,	8298,	8877,	8510,	8632,	8509,	8280,	8370,	8915,	8950,	8470,	9108,	14.22,	11.66,	13.16,	13.93,	12.07,	14.55,	1.44,	12.24,	9.11,	11.50,	15.05,	12.84,	14.50,	10.76,	1694,	1686
22,	8260,	7793,	7981,	8283,	8883,	8532,	8650,	8537,	8287,	8379,	8907,	8951,	8467,	9124,	14.22,	11.66,	13.16,	13.93,	12.07,	14.55,	1.44,	12.24,	9.11,	11.50,	15.05,	12.84,	14.50,	10.76,	1693,	1686
23,	8264,	7813,	8014,	8337,	8894,	8531,	8637,	8536,	8291,	8366,	8910,	8960,	8468,	9131,	14.22,	11.66,	13.16,	13.93,	12.07,	14.55,	1.44,	12.24,	9.11,	11.50,	15.05,	12.84,	14.50,	10.76,	1694,	1686
24,	8267,	7827,	8035,	8387,	8906,	8496,	8607,	8509,	8282,	8342,	8895,	8975,	8454,	9126,	14.22,	11.66,	13.16,	13.93,	12.07,	14.55,	1.44,	12.24,	9.11,	11.50,	15.05,	12.84,	14.50,	10.76,	1693,	1687
25,	8287,	7838,	8056,	8405,	8914,	8499,	8622,	8516,	8284,	8346,	8877,	8992,	8450,	9137,	14.22,	11.66,	13.16,	13.93,	12.07,	14.55,	1.44,	12.24,	9.11,	11.50,	15.05,	12.84,	14.50,	10.76,	1695,	1687
26,	8283,	7845,	8063,	8415,	8913,	8516,	8642,	8520,	8282,	8336,	8851,	8974,	8435,	9132,	14.22,	11.66,	13.16,	13.93,	12.07,	14.55,	1.44,	12.24,	9.11,	11.50,	15.05,	12.84,	14.50,	10.76,	1695,	1688
27,	8264,	7847,	8059,	8429,	8907,	8495,	8618,	8498,	8275,	8312,	8834,	8954,	8414,	9111,	14.22,	11.66,	13.16,	13.93,	12.07,	14.55,	1.44,	12.24,	9.11,	11.50,	15.05,	12.84,	14.50,	10.76,	1694,	1690
28,	8278,	7862,	8075,	8445,	8914,	8503,	8629,	8518,	8283,	8318,	8847,	8973,	8433,	9123,	14.22,	11.66,	13.16,	13.93,	12.07,	14.55,	1.44,	12.24,	9.11,	11.50,	15.05,	12.84,	14.50,	10.76,	1696,	1688
29,	8303,	7871,	8096,	8445,	8922,	8539,	8677,	8544,	8287,	8320,	8853,	8994,	8454,	9145,	14.22,	11.66,	13.16,	13.93,	12.07,	14.55,	1.44,	12.24,	9.11,	11.50,	15.05,	12.84,	14.50,	10.76,	1693,	1690
30,	8306,	7852,	8093,	8421,	8915,	8522,	8659,	8519,	8285,	8310,	8846,	8989,	8442,	9146,	14.22,	11.66,	13.16,	13.93,	12.07,	14.55,	1.44,	12.24,	9.11,	11.50,	15.05,	12.84,	14.50,	10.76,	1695,	1690
31,	8299,	7841,	8086,	8413,	8914,	8495,	8628,	8511,	8289,	8333,	8847,	8978,	8437,	9143,	14.22,	11.66,	13.16,	13.93,	12.07,	14.55,	1.44,	12.24,	9.11,	11.50,	15.05,	12.84,	14.50,	10.76,	1694,	1689
32,	8284,	7838,	8072,	8415,	8912,	8502,	8643,	8540,	8289,	8342,	8833,	8961,	8432,	9134,	14.22,	11.66,	13.16,	13.93,	12.07,	14.55,	1.44,	12.24,	9.11,	11.50,	15.05,	12.84,	14.50,	10.76,	1694,	1690
33,	8264,	7825,	8052,	8393,	8906,	8497,	8640,	8535,	8287,	8315,	8812,	8943,	8411,	9114,	14.22,	11.66,	13.16,	13.93,	12.07,	14.55,	1.44,	12.24,	9.11,	11.50,	15.05,	12.84,	14.50,	10.76,	1693,	1689
34,	8267,	7821,	8059,	8381,	8907,	8498,	8629,	8521,	8301,	8317,	8821,	8953,	8412,	9116,	14.22,	11.66,	13.16,	13.93,	12.07,	14.55,	1.44,	12.24,	9.11,	11.50,	15.05,	12.84,	14.50,	10.76,	1695,	1688
35,	8283,	7827,	8079,	8398,	8913,	8525,	8659,	8556,	8317,	8344,	8829,	8968,	8430,	9134,	14.22,	11.66,	13.16,	13.93,	12.07,	14.55,	1.44,	12.24,	9.11,	11.50,	15.05,	12.84,	14.50,	10.76,	1693,	1688
36,	8293,	7835,	8085,	8414,	8912,	8526,	8667,	8559,	8312,	8343,	8819,	8971,	8426,	9136,	14.22,	11.66,	13.16,	13.93,	12.07,	14.55,	1.44,	12.24,	9.11,	11.50,	15.05,	12.84,	14.50,	10.76,	1694,	1688
37,	8298,	7842,	8095,	8420,	8915,	8507,	8633,	8513,	8303,	8323,	8831,	8980,	8423,	9138,	14.22,	11.66,	13.16,	13.93,	12.07,	14.55,	1.44,	12.24,	9.11,	11.50,	15.05,	12.84,	14.50,	10.76,	1695,	1687
38,	8306,	7831,	8101,	8416,	8925,	8511,	8624,	8512,	8308,	8326,	8851,	8986,	8442,	9149,	14.22,	11.66,	13.16,	13.93,	12.07,	14.55,	1.44,	12.24,	9.11,	11.50,	15.05,	12.84,	14.50,	10.76,	1694,	1688
39,	8316,	7832,	8106,	8417,	8937,	8535,	8671,	8551,	8317,	8352,	8854,	8988,	8456,	9150,	14.22,	11.66,	13.16,	13.93,	12.07,	14.55,	1.44,	12.24,	9.11,	11.50,	15.05,	12.84,	14.50,	10.76,	1695,	1686
40,	8320,	7864,	8116,	8433,	8945,	8558,	8731,	8566,	8326,	8370,	8849,	8991,	8455,	9144,	14.22,	11.66,	13.16,	13.93,	12.07,	14.55,	1.44,	12.24,	9.11,	11.50,	15.05,	12.84,	14.50,	10.76,	1694,	1687
41,	8309,	7861,	8108,	8430,	8938,	8537,	8699,	8540,	8316,	8340,	8833,	8979,	8436,	9133,	14.22,	11.66,	13.16,	13.93,	12.07,	14.55,	1.44,	12.24,	9.11,	11.50,	15.05,	12.84,	14.50,	10.76,	1695,	1686
42,	8300,	7825,	8103,	8409,	8932,	8508,	8648,	8519,	8296,	8307,	8812,	8974,	8420,	9132,	14.22,	11.66,	13.16,	13.93,	12.07,	14.55,	1.44,	12.24,	9.11,	11.50,	15.05,	12.84,	14.50,	10.76,	1695,	1686
43,	8315,	7828,	8122,	8414,	8941,	8530,	8692,	8530,	8303,	8320,	8816,	8997,	8430,	9145,	14.22,	11.66,	13.16,	13.93,	12.07,	14.55,	1.44,	12.24,	9.11,	11.50,	15.05,	12.84,	14.50,	10.76,	1696,	1686
44,	8333,	7857,	8144,	8436,	8946,	8560,	8742,	8549,	8322,	8342,	8841,	9008,	8443,	9162,	14.22,	11.66,	13.16,	13.93,	12.07,	14.55,	1.44,	12.24,	9.11,	11.50,	15.05,	12.84,	14.50,	10.76,	1696,	1685
45,	8321,	7858,	8141,	8440,	8942,	8551,	8718,	8554,	8323,	8342,	8850,	8990,	8440,	9162,	14.22,	11.66,	13.16,	13.93,	12.07,	14.55,	1.44,	12.24,	9.11,	11.50,	15.05,	12.84,	14.50,	10.76,	1696,	1685
46,	8308,	7842,	8129,	8438,	8944,	8528,	8691,	8559,	8321,	8345,	8845,	8985,	8440,	9145,	14.22,	11.66,	13.16,	13.93,	12.07,	14.55,	1.44,	12.24,	9.11,	11.50,	15.05,	12.84,	14.50,	10.76,	1696,	1685
47,	8313,	7839,	8133,	8444,	8947,	8515,	8696,	8545,	8325,	8350,	8845,	8999,	8445,	9144,	14.22,	11.66,	13.16,	13.93,	12.07,	14.55,	1.44,	12.24,	9.11,	11.50,	15.05,	12.84,	14.50,	10.76,	1696,	1685
48,	8312,	7841,	8140,	8439,	8938,	8491,	8682,	8507,	8308,	8334,	8840,	8998,	8439,	9159,	14.22,	11.66,	13.16,	13.93,	12.07,	14.55,	1.44,	12.24,	9.11,	11.50,	15.05,	12.84,	14.50,	10.76,	1697,	1685
49,	8310,	7840,	8143,	8435,	8941,	8472,	8671,	8505,	8293,	8320,	8834,	9000,	8436,	9166,	14.22,	11.66,	13.16,	13.93,	12.07,	14.55,	1.44,	12.24,	9.11,	11.50,	15.05,	12.84,	14.50,	10.76,	1696,	1686
50,	8300,	7822,	8128,	8419,	8945,	8467,	8669,	8501,	8277,	8290,	8802,	8982,	8412,	9143,	14.22,	11.66,	13.16,	13.93,	12.07,	14.55,	1.44,	12.24,	9.11,	11.50,	15.05,	12.84,	14.50,	10.76,	1697,	1685
51,	8238,	7772,	8070,	8360,	8905,	8452,	8632,	8438,	8231,	8220,	8730,	8911,	8340,	9087,	14.22,	11.66,	13.16,	13.93,	12.07,	14.55,	1.44,	12.24,	9.11,	11.50,	15.05,	12.84,	14.50,	10.76,	1695,	1687
52,	8182,	7729,	8023,	8307,	8866,	8422,	8582,	8395,	8204,	8183,	8682,	8858,	8289,	9048,	14.22,	11.66,	13.16,	13.93,	12.07,	14.55,	1.44,	12.24,	9.11,	11.50,	15.05,	12.84,	14.50,	10.76,	1697,	1687
53,	8230,	7764,	8063,	8344,	8896,	8453,	8646,	8457,	8253,	8247,	8738,	8899,	8345,	9086,	14.22,	11.66,	13.16,	13.93,	12.07,	14.55,	1.44,	12.24,	9.11,	11.50,	15.05,	12.84,	14.50,	10.76,	1696,	1687
54,	8328,	7848,	8159,	8433,	8963,	8535,	8778,	8550,	8334,	8352,	8844,	8994,	8453,	9174,	14.22,	11.66,	13.16,	13.93,	12.07,	14.55,	1.44,	12.24,	9.11,	11.50,	15.05,	12.84,	14.50,	10.76,	1697,	1689
55,	8367,	7883,	8213,	8474,	8990,	8528,	8749,	8562,	8364,	8391,	8890,	9044,	8493,	9217,	14.22,	11.66,	13.16,	13.93,	12.07,	14.55,	1.44,	12.24,	9.11,	11.50,	15.05,	12.84,	14.50,	10.76,	1696,	1688
56,	8366,	7877,	8217,	8476,	8977,	8479,	8668,	8533,	8352,	8389,	8886,	9043,	8487,	9212,	14.22,	11.66,	13.16,	13.93,	12.07,	14.55,	1.44,	12.24,	9.11,	11.50,	15.05,	12.84,	14.50,	10.76,	1696,	1688
57,	8366,	7875,	8211,	8479,	8975,	8490,	8697,	8516,	8330,	8380,	8879,	9032,	8488,	9208,	14.22,	11.66,	13.16,	13.93,	12.07,	14.55,	1.44,	12.24,	9.11,	11.50,	15.05,	12.84,	14.50,	10.76,	1696,	1688
58,	8342,	7861,	8190,	8463,	8971,	8487,	8690,	8499,	8307,	8357,	8861,	9015,	8468,	9192,	14.22,	11.66,	13.16,	13.93,	12.07,	14.55,	1.44,	12.24,	9.11,	11.50,	15.05,	12.84,	14.50,	10.76,	1695,	1688
59,	8314,	7839,	8173,	8443,	8951,	8453,	8633,	8501,	8315,	8350,	8840,	8998,	8448,	9170,	14.22,	11.66,	13.16,	13.93,	12.07,	14.55,	1.44,	12.24,	9.11,	11.50,	15.05,	12.84,	14.50,	10.76,	1696,	1686
60,	8315,	7842,	8189,	8460,	8954,	8470,	8667,	8523,	8330,	8364,	8848,	9005,	8456,	9172,	14.22,	11.66,	13.16,	13.93,	12.07,	14.55,	1.44,	12.24,	9.11,	11.50,	15.05,	12.84,	14.50,	10.76,	1695,	1686
61,	8323,	7854,	8206,	8477,	8965,	8490,	8716,	8529,	8320,	8356,	8850,	9018,	8452,	9181,	14.22,	11.66,	13.16,	13.93,	12.07,	14.55,	1.44,	12.24,	9.11,	11.50,	15.05,	12.84,	14.50,	10.76,	1695,	1684
62,	8324,	7845,	8201,	8457,	8950,	8472,	8690,	8526,	8319,	8337,	8823,	9009,	8437,	9180,	14.22,	11.66,	13.16,	13.93,	12.07,	14.55,	1.44,	12.24,	9.11,	11.50,	15.05,	12.84,	14.50,	10.76,	1693,	1686
63,	8333,	7839,	8207,	8450,	8955,	8483,	8684,	8548,	8349,	8362,	8849,	9019,	8461,	9195,	14.22,	11.66,	13.16,	13.93,	12.07,	14.55,	1.44,	12.24,	9.11,	11.50,	15.05,	12.84,	14.50,	10.76,	1694,	1685
64,	8340,	7837,	8225,	8465,	8973,	8493,	8702,	8554,	8352,	8387,	8925,	9054,	8498,	9212,	14.25,	11.66,	13.16,	13.93,	12.07,	14.55,	1.44,	12.24,	9.11,	11.50,	15.05,	12.84,	14.50,	10.76,	1694,	1685
65,	8342,	7826,	8230,	8455,	8952,	8472,	8693,	8533,	8340,	8384,	8970,	9075,	8515,	9212,	14.25,	11.63,	13.16,	13.93,	12.07,	14.55,	1.44,	12.24,	9.11,	11.50,	15.05,	12.84,	14.50,	10.76,	1694,	1686
66,	8350,	7809,	8224,	8418,	8934,	8475,	8690,	8538,	8365,	8398,	8984,	9078,	8533,	9216,	14.25,	11.63,	13.19,	13.93,	12.07,	14.55,	1.44,	12.24,	9.11,	11.50,	15.05,	12.84,	14.50,	10.76,	1695,	1687
67,	8348,	7792,	8221,	8389,	8946,	8499,	8707,	8544,	8376,	8416,	8989,	9073,	8534,	9223,	14.25,	11.63,	13.19,	13.97,	12.07,	14.55,	1.44,	12.24,	9.11,	11.50,	15.05,	12.84,	14.50,	10.76,	1694,	1688
68,	8328,	7785,	8219,	8388,	8945,	8490,	8704,	8520,	8348,	8397,	8977,	9062,	8514,	9212,	14.25,	11.63,	13.19,	13.97,	12.03,	14.55,	1.44,	12.24,	9.11,	11.50,	15.05,	12.84,	14.50,	10.76,	1695,	1688
69,	8329,	7799,	8218,	8405,	8936,	8474,	8678,	8512,	8344,	8381,	8972,	9061,	8509,	9204,	14.25,	11.63,	13.19,	13.97,	12.03,	14.55,	1.44,	12.24,	9.11,	11.50,	15.05,	12.84,	14.50,	10.76,	1694,	1688
70,	8352,	7819,	8239,	8422,	8942,	8491,	8687,	8537,	8371,	8402,	8983,	9084,	8524,	9230,	14.25,	11.63,	13.19,	13.97,	12.03,	14.55,	1.47,	12.24,	9.11,	11.50,	15.05,	12.84,	14.50,	10.76,	1694,	1689
71,	8360,	7827,	8259,	8421,	8946,	8501,	8708,	8555,	8381,	8415,	8986,	9093,	8535,	9245,	14.25,	11.63,	13.19,	13.97,	12.03,	14.55,	1.47,	12.21,	9.11,	11.50,	15.05,	12.84,	14.50,	10.76,	1694,	1689
72,	8344,	7820,	8250,	8405,	8943,	8478,	8679,	8547,	8377,	8406,	8977,	9075,	8531,	9226,	14.25,	11.63,	13.19,	13.97,	12.03,	14.55,	1.47,	12.21,	9.11,	11.50,	15.05,	12.84,	14.50,	10.76,	1694,	1688
73,	8319,	7805,	8231,	8396,	8938,	8466,	8658,	8534,	8374,	8393,	8962,	9047,	8514,	9207,	14.25,	11.63,	13.19,	13.97,	12.03,	14.55,	1.47,	12.21,	9.11,	11.53,	15.05,	12.84,	14.50,	10.76,	1694,	1688
74,	8309,	7800,	8226,	8395,	8942,	8499,	8716,	8533,	8368,	8381,	8945,	9036,	8496,	9199,	14.25,	11.63,	13.19,	13.97,	12.03,	14.55,	1.47,	12.21,	9.11,	11.53,	15.05,	12.84,	14.50,	10.76,	1694,	1687
75,	8313,	7810,	8234,	8397,	8955,	8533,	8779,	8545,	8367,	8380,	8945,	9045,	8495,	9200,	14.25,	11.63,	13.19,	13.97,	12.03,	14.55,	1.47,	12.21,	9.11,	11.53,	15.05,	12.79,	14.50,	10.76,	1694,	1688
76,	8293,	7798,	8228,	8389,	8952,	8514,	8745,	8545,	8362,	8373,	8937,	9033,	8490,	9194,	14.25,	11.63,	13.19,	13.97,	12.03,	14.55,	1.47,	12.21,	9.11,	11.53,	15.05,	12.79,	14.47,	10.76,	1694,	1687
77,	8257,	7773,	8208,	8367,	8928,	8466,	8658,	8526,	8347,	8350,	8914,	9005,	8470,	9170,	14.25,	11.63,	13.19,	13.97,	12.03,	14.55,	1.47,	12.21,	9.11,	11.53,	15.05,	12.79,	14.47,	10.58,	1694,	1687
78,	8261,	7774,	8213,	8364,	8924,	8451,	8634,	8512,	8340,	8352,	8913,	9002,	8467,	9157,	14.25,	11.63,	13.19,	13.97,	12.03,	14.55,	1.47,	12.21,	9.11,	11.53,	15.08,	12.79,	14.47,	10.58,	1694,	1687
79,	8303,	7803,	8248,	8399,	8956,	8490,	8684,	8519,	8358,	8381,	8946,	9027,	8494,	9186,	14.25,	11.63,	13.19,	13.97,	12.03,	14.55,	1.47,	12.21,	9.11,	11.53,	15.08,	12.74,	14.47,	10.58,	1693,	1688
80,	8329,	7832,	8277,	8429,	8982,	8525,	8718,	8543,	8384,	8399,	8974,	9062,	8522,	9226,	14.25,	11.63,	13.19,	13.97,	12.03,	14.55,	1.47,	12.21,	9.11,	11.53,	15.08,	12.74,	14.49,	10.58,	1695,	1686
81,	8325,	7830,	8277,	8421,	8976,	8512,	8687,	8551,	8390,	8406,	8975,	9070,	8527,	9224,	14.25,	11.63,	13.19,	13.97,	12.03,	14.55,	1.47,	12.21,	9.11,	11.53,	15.08,	12.74,	14.49,	10.59,	1694,	1687
82,	8317,	7825,	8275,	8415,	8970,	8490,	8663,	8534,	8379,	8401,	8965,	9050,	8519,	9209,	14.25,	11.63,	13.19,	13.97,	12.03,	14.55,	1.47,	12.21,	9.11,	11.53,	15.10,	12.74,	14.49,	10.59,	1695,	1686
83,	8334,	7842,	8298,	8430,	8987,	8503,	8697,	8532,	8384,	8400,	8972,	9059,	8529,	9224,	14.25,	11.63,	13.19,	13.97,	12.03,	14.55,	1.47,	12.21,	9.11,	11.53,	15.10,	12.76,	14.49,	10.59,	1694,	1686
84,	8363,	7858,	8322,	8440,	8999,	8532,	8739,	8554,	8410,	8432,	8999,	9097,	8554,	9248,	14.25,	11.63,	13.19,	13.97,	12.03,	14.55,	1.47,	12.21,	9.11,	11.53,	15.10,	12.76,	14.50,	10.59,	1695,	1687
85,	8365,	7853,	8329,	8445,	8984,	8514,	8698,	8551,	8414,	8445,	9004,	9093,	8554,	9245,	14.25,	11.63,	13.19,	13.97,	12.03,	14.55,	1.47,	12.21,	9.11,	11.53,	15.10,	12.76,	14.50,	10.58,	1695,	1686
86,	8342,	7854,	8325,	8455,	8972,	8465,	8622,	8510,	8387,	8420,	8974,	9069,	8532,	9223,	14.25,	11.63,	13.19,	13.97,	12.03,	14.55,	1.47,	12.21,	9.11,	11.53,	15.08,	12.76,	14.50,	10.58,	1694,	1688
87,	8342,	7864,	8339,	8482,	8983,	8473,	8648,	8495,	8368,	8412,	8969,	9089,	8531,	9227,	14.25,	11.63,	13.19,	13.97,	12.03,	14.55,	1.47,	12.21,	9.11,	11.53,	15.08,	12.74,	14.50,	10.58,	1695,	1688
88,	8376,	7868,	8367,	8499,	8999,	8509,	8697,	8524,	8377,	8427,	8995,	9122,	8546,	9252,	14.25,	11.63,	13.19,	13.97,	12.03,	14.55,	1.47,	12.21,	9.11,	11.53,	15.08,	12.74,	14.47,	10.58,	1695,	1690
89,	8375,	7861,	8372,	8482,	8992,	8494,	8667,	8533,	8379,	8426,	9002,	9118,	8546,	9246,	14.25,	11.63,	13.19,	13.97,	12.03,	14.55,	1.47,	12.21,	9.11,	11.53,	15.08,	12.74,	14.47,	10.59,	1696,	1690
90,	8348,	7860,	8368,	8470,	8984,	8493,	8677,	8528,	8378,	8423,	8994,	9102,	8543,	9236,	14.25,	11.63,	13.19,	13.97,	12.03,	14.55,	1.47,	12.21,	9.11,	11.53,	15.07,	12.74,	14.47,	10.59,	1695,	1690
91,	8363,	7871,	8376,	8477,	8994,	8526,	8741,	8538,	8386,	8433,	8999,	9108,	8555,	9257,	14.25,	11.63,	13.19,	13.97,	12.03,	14.55,	1.47,	12.21,	9.11,	11.53,	15.07,	12.76,	14.47,	10.59,	1696,	1688
92,	8390,	7876,	8380,	8479,	8995,	8526,	8743,	8551,	8397,	8441,	9011,	9120,	8563,	9269,	14.25,	11.63,	13.19,	13.97,	12.03,	14.55,	1.47,	12.21,	9.11,	11.53,	15.07,	12.76,	14.50,	10.59,	1695,	1689
93,	8376,	7863,	8375,	8475,	8984,	8511,	8719,	8568,	8409,	8440,	9007,	9113,	8553,	9257,	14.25,	11.63,	13.19,	13.97,	12.03,	14.55,	1.47,	12.21,	9.11,	11.53,	15.07,	12.76,	14.50,	10.59,	1697,	1688
94,	8343,	7846,	8360,	8457,	8977,	8505,	8704,	8560,	8396,	8416,	8979,	9086,	8522,	9235,	14.25,	11.63,	13.19,	13.97,	12.03,	14.55,	1.47,	12.21,	9.11,	11.53,	15.05,	12.76,	14.50,	10.59,	1696,	1688
95,	8339,	7840,	8349,	8443,	8975,	8493,	8683,	8527,	8369,	8398,	8957,	9073,	8509,	9218,	14.25,	11.63,	13.19,	13.97,	12.03,	14.55,	1.47,	12.21,	9.11,	11.53,	15.05,	12.79,	14.50,	10.59,	1696,	1689
96,	8365,	7850,	8368,	8460,	8972,	8492,	8697,	8535,	8380,	8414,	8974,	9094,	8535,	9234,	14.25,	11.63,	13.19,	13.97,	12.03,	14.55,	1.47,	12.21,	9.11,	11.53,	15.05,	12.79,	14.47,	10.59,	1696,	1688
97,	8369,	7854,	8374,	8469,	8971,	8511,	8734,	8561,	8399,	8418,	8980,	9096,	8533,	9244,	14.25,	11.63,	13.19,	13.97,	12.03,	14.55,	1.47,	12.21,	9.11,	11.53,	15.05,	12.79,	14.47,	10.58,	1695,	1689
98,	8335,	7844,	8345,	8448,	8974,	8530,	8756,	8555,	8384,	8397,	8951,	9070,	8496,	9220,	14.25,	11.63,	13.19,	13.97,	12.03,	14.55,	1.47,	12.21,	9.11,	11.53,	15.05,	12.79,	14.47,	10.58,	1696,	1687
99,	8309,	7832,	8328,	8437,	8974,	8525,	8754,	8549,	8372,	8383,	8939,	9056,	8488,	9198,	14.25,	11.63,	13.19,	13.97,	12.03,	14.55,	1.47,	12.21,	9.11,	11.53,	15.05,	12.77,	14.47,	10.58,	1695,	1688
100,	8316,	7827,	8331,	8439,	8969,	8508,	8727,	8556,	8379,	8386,	8940,	9054,	8500,	9195,	14.25,	11.63,	13.19,	13.97,	12.03,	14.55,	1.47,	12.21,	9.11,	11.53,	15.05,	12.77,	14.50,	10.58,	1696,	1688
101,	8332,	7840,	8339,	8446,	8973,	8524,	8735,	8564,	8387,	8398,	8941,	9065,	8503,	9210,	14.25,	11.63,	13.19,	13.97,	12.03,	14.55,	1.47,	12.21,	9.11,	11.53,	15.05,	12.77,	14.50,	10.59,	1695,	1688
102,	8347,	7862,	8357,	8467,	8996,	8550,	8765,	8574,	8400,	8411,	8960,	9091,	8519,	9234,	14.25,	11.63,	13.19,	13.97,	12.03,	14.55,	1.47,	12.21,	9.11,	11.53,	15.07,	12.77,	14.50,	10.59,	1697,	1687
103,	8361,	7870,	8378,	8487,	9006,	8541,	8743,	8587,	8417,	8413,	8977,	9100,	8534,	9241,	14.25,	11.63,	13.19,	13.97,	12.03,	14.55,	1.47,	12.21,	9.11,	11.53,	15.07,	12.79,	14.50,	10.59,	1695,	1688
104,	8352,	7865,	8376,	8484,	8983,	8531,	8721,	8600,	8424,	8413,	8970,	9083,	8524,	9228,	14.25,	11.63,	13.19,	13.97,	12.03,	14.55,	1.47,	12.21,	9.11,	11.53,	15.07,	12.79,	14.47,	10.59,	1696,	1688
105,	8329,	7857,	8359,	8477,	8968,	8525,	8725,	8576,	8416,	8415,	8961,	9073,	8516,	9216,	14.25,	11.63,	13.19,	13.97,	12.03,	14.55,	1.47,	12.21,	9.11,	11.53,	15.07,	12.79,	14.47,	10.56,	1695,	1687
106,	8326,	7857,	8360,	8481,	8986,	8519,	8725,	8520,	8398,	8403,	8961,	9077,	8519,	9212,	14.25,	11.63,	13.19,	13.97,	12.03,	14.55,	1.47,	12.21,	9.11,	11.53,	15.07,	12.79,	14.47,	10.56,	1695,	1687
107,	8352,	7874,	8378,	8489,	9004,	8546,	8754,	8519,	8399,	8399,	8966,	9089,	8522,	9226,	14.25,	11.63,	13.19,	13.97,	12.03,	14.55,	1.47,	12.21,	9.11,	11.53,	15.07,	12.77,	14.47,	10.56,	1696,	1685
108,	8363,	7882,	8383,	8484,	8991,	8544,	8743,	8550,	8411,	8407,	8969,	9099,	8517,	9238,	14.25,	11.63,	13.19,	13.97,	12.03,	14.55,	1.47,	12.21,	9.11,	11.53,	15.07,	12.77,	14.50,	10.56,	1695,	1686
109,	8343,	7861,	8374,	8470,	8971,	8492,	8671,	8529,	8397,	8392,	8960,	9090,	8507,	9218,	14.25,	11.63,	13.19,	13.97,	12.03,	14.55,	1.47,	12.21,	9.11,	11.53,	15.07,	12.77,	14.50,	10.59,	1697,	1685
110,	8344,	7859,	8378,	8480,	8978,	8509,	8696,	8506,	8388,	8383,	8961,	9086,	8516,	9218,	14.25,	11.63,	13.19,	13.97,	12.03,	14.55,	1.47,	12.21,	9.11,	11.53,	15.05,	12.77,	14.50,	10.59,	1696,	1685
111,	8369,	7885,	8396,	8501,	9001,	8554,	8747,	8523,	8409,	8412,	8979,	9097,	8534,	9241,	14.25,	11.63,	13.19,	13.97,	12.03,	14.55,	1.47,	12.21,	9.11,	11.53,	15.05,	12.79,	14.50,	10.59,	1696,	1686
112,	8354,	7879,	8388,	8490,	9005,	8515,	8675,	8519,	8413,	8425,	8972,	9082,	8520,	9222,	14.25,	11.63,	13.19,	13.97,	12.03,	14.55,	1.47,	12.21,	9.11,	11.53,	15.05,	12.79,	14.50,	10.59,	1696,	1686
113,	8321,	7857,	8367,	8470,	8989,	8475,	8634,	8487,	8391,	8396,	8951,	9059,	8495,	9191,	14.25,	11.63,	13.19,	13.97,	12.03,	14.55,	1.47,	12.21,	9.11,	11.53,	15.05,	12.79,	14.50,	10.58,	1697,	1686
114,	8344,	7873,	8382,	8486,	8996,	8529,	8738,	8516,	8402,	8393,	8965,	9076,	8516,	9214,	14.25,	11.63,	13.19,	13.97,	12.03,	14.55,	1.47,	12.21,	9.11,	11.53,	15.08,	12.79,	14.50,	10.58,	1696,	1686
115,	8380,	7896,	8403,	8507,	9014,	8571,	8787,	8569,	8436,	8419,	8993,	9107,	8550,	9248,	14.25,	11.63,	13.19,	13.97,	12.03,	14.55,	1.47,	12.21,	9.11,	11.53,	15.08,	12.79,	14.50,	10.58,	1698,	1686
116,	8352,	7874,	8377,	8480,	8995,	8528,	8703,	8529,	8415,	8405,	8965,	9087,	8521,	9222,	14.25,	11.63,	13.19,	13.97,	12.03,	14.55,	1.47,	12.21,	9.11,	11.53,	15.08,	12.79,	14.50,	10.58,	1698,	1686
117,	8300,	7843,	8330,	8445,	8968,	8491,	8646,	8455,	8368,	8369,	8914,	9037,	8464,	9169,	14.25,	11.63,	13.19,	13.97,	12.03,	14.55,	1.47,	12.21,	9.11,	11.53,	15.08,	12.79,	14.50,	10.58,	1698,	1687
118,	8304,	7853,	8335,	8463,	8984,	8509,	8660,	8455,	8371,	8366,	8924,	9037,	8469,	9168,	14.25,	11.63,	13.19,	13.97,	12.03,	14.55,	1.47,	12.21,	9.11,	11.53,	15.05,	12.79,	14.50,	10.58,	1699,	1685
119,	8343,	7878,	8378,	8496,	9010,	8533,	8677,	8493,	8401,	8387,	8970,	9081,	8512,	9208,	14.25,	11.63,	13.19,	13.97,	12.03,	14.55,	1.47,	12.21,	9.11,	11.53,	15.05,	12.76,	14.50,	10.58,	1698,	1687
120,	8356,	7878,	8389,	8489,	9010,	8537,	8702,	8508,	8401,	8387,	8978,	9093,	8518,	9221,	14.25,	11.63,	13.19,	13.97,	12.03,	14.55,	1.47,	12.21,	9.11,	11.53,	15.05,	12.76,	14.49,	10.58,	1699,	1686
121,	8352,	7868,	8380,	8473,	9002,	8544,	8726,	8513,	8394,	8374,	8964,	9077,	8506,	9215,	14.25,	11.63,	13.19,	13.97,	12.03,	14.55,	1.47,	12.21,	9.11,	11.53,	15.05,	12.76,	14.49,	10.58,	1699,	1686
122,	8346,	7866,	8369,	8480,	8996,	8538,	8704,	8513,	8400,	8385,	8967,	9073,	8512,	9212,	14.25,	11.63,	13.19,	13.97,	12.03,	14.55,	1.47,	12.21,	9.11,	11.53,	15.05,	12.76,	14.49,	10.58,	1700,	1687
123,	8336,	7871,	8359,	8487,	9004,	8536,	8700,	8521,	8409,	8400,	8972,	9079,	8518,	9212,	14.25,	11.63,	13.19,	13.97,	12.03,	14.55,	1.47,	12.21,	9.11,	11.53,	15.05,	12.74,	14.49,	10.58,	1699,	1687
124,	8337,	7881,	8359,	8477,	9028,	8576,	8765,	8545,	8417,	8401,	8972,	9076,	8517,	9215,	14.25,	11.63,	13.19,	13.97,	12.03,	14.55,	1.47,	12.21,	9.11,	11.53,	15.05,	12.74,	14.47,	10.58,	1700,	1688
125,	8343,	7883,	8353,	8472,	9021,	8581,	8774,	8545,	8416,	8406,	8975,	9067,	8519,	9207,	14.25,	11.63,	13.19,	13.97,	12.03,	14.55,	1.47,	12.21,	9.11,	11.53,	15.05,	12.74,	14.47,	10.58,	1699,	1688
126,	8330,	7872,	8345,	8474,	8994,	8538,	8706,	8526,	8406,	8414,	8974,	9066,	8522,	9190,	14.25,	11.63,	13.19,	13.97,	12.03,	14.55,	1.47,	12.21,	9.11,	11.53,	15.08,	12.74,	14.47,	10.58,	1699,	1688
127,	8324,	7874,	8357,	8473,	9003,	8527,	8691,	8532,	8405,	8415,	8989,	9076,	8529,	9193,	14.25,	11.63,	13.19,	13.97,	12.03,	14.55,	1.47,	12.21,	9.11,	11.53,	15.08,	12.79,	14.47,	10.58,	1699,	1686
0,	8328,	7878,	8350,	8477,	9014,	8563,	8742,	8543,	8410,	8393,	8993,	9078,	8520,	9184,	14.25,	11.63,	13.19,	13.97,	12.03,	14.55,	1.47,	12.21,	9.11,	11.53,	15.08,	12.79,	14.47,	10.58,	1699,	1684
1,	8303,	7865,	8333,	8472,	8997,	8545,	8715,	8530,	8391,	8375,	8966,	9048,	8499,	9167,	14.25,	11.66,	13.19,	13.97,	12.03,	14.55,	1.47,	12.21,	9.11,	11.53,	15.08,	12.79,	14.47,	10.58,	1699,	1684
2,	8299,	7869,	8333,	8469,	9003,	8542,	8701,	8520,	8377,	8385,	8960,	9035,	8493,	9162,	14.25,	11.66,	13.17,	13.97,	12.03,	14.55,	1.47,	12.21,	9.11,	11.53,	15.08,	12.79,	14.47,	10.58,	1698,	1685
3,	8316,	7878,	8335,	8470,	9006,	8544,	8700,	8499,	8378,	8395,	8965,	9047,	8494,	9165,	14.25,	11.66,	13.17,	13.93,	12.03,	14.55,	1.47,	12.21,	9.11,	11.53,	15.08,	12.79,	14.47,	10.58,	1699,	1685
4,	8325,	7881,	8340,	8465,	9003,	8536,	8683,	8476,	8383,	8389,	8970,	9054,	8498,	9171,	14.25,	11.66,	13.17,	13.93,	12.01,	14.55,	1.47,	12.21,	9.11,	11.53,	15.08,	12.79,	14.47,	10.58,	1698,	1686
5,	8325,	7892,	8352,	8469,	9016,	8533,	8666,	8464,	8375,	8384,	8976,	9056,	8499,	9176,	14.25,	11.66,	13.17,	13.93,	12.01,	14.55,	1.47,	12.21,	9.11,	11.53,	15.08,	12.79,	14.47,	10.58,	1699,	1686
6,	8324,	7897,	8353,	8476,	9020,	8539,	8671,	8464,	8369,	8380,	8961,	9058,	8487,	9175,	14.25,	11.66,	13.17,	13.93,	12.01,	14.55,	1.29,	12.21,	9.11,	11.53,	15.08,	12.79,	14.47,	10.58,	1698,	1686
7,	8314,	7885,	8338,	8464,	9005,	8535,	8680,	8467,	8371,	8377,	8944,	9049,	8484,	9170,	14.25,	11.66,	13.17,	13.93,	12.01,	14.55,	1.29,	12.21,	9.11,	11.53,	15.08,	12.79,	14.47,	10.58,	1698,	1687
8,	8294,	7868,	8317,	8441,	9006,	8556,	8715,	8475,	8375,	8375,	8941,	9031,	8484,	9163,	14.25,	11.66,	13.17,	13.93,	12.01,	14.55,	1.29,	12.21,	9.11,	11.53,	15.08,	12.79,	14.47,	10.58,	1699,	1685
9,	8260,	7831,	8275,	8399,	8994,	8572,	8728,	8467,	8353,	8336,	8904,	8993,	8446,	9130,	14.25,	11.66,	13.17,	13.93,	12.01,	14.55,	1.29,	12.21,	9.11,	11.50,	15.08,	12.79,	14.47,	10.58,	1698,	1687
10,	8215,	7777,	8227,	8341,	8938,	8513,	8652,	8443,	8314,	8280,	8835,	8938,	8384,	9080,	14.25,	11.66,	13.17,	13.93,	12.01,	14.55,	1.29,	12.21,	9.11,	11.50,	14.93,	12.79,	14.47,	10.58,	1698,	1687
11,	8215,	7770,	8232,	8336,	8920,	8486,	8631,	8446,	8322,	8286,	8831,	8941,	8381,	9079,	14.25,	11.66,	13.17,	13.93,	12.01,	14.55,	1.29,	12.21,	9.11,	11.50,	14.93,	12.67,	14.47,	10.58,	1697,	1687
12,	8296,	7844,	8310,	8414,	8977,	8551,	8707,	8484,	8380,	8360,	8918,	9026,	8457,	9159,	14.25,	11.66,	13.17,	13.93,	12.01,	14.55,	1.29,	12.21,	9.11,	11.50,	14.93,	12.67,	14.50,	10.58,	1697,	1688
13,	8387,	7923,	8396,	8492,	9025,	8589,	8735,	8535,	8433,	8434,	9008,	9108,	8536,	9238,	14.25,	11.66,	13.17,	13.93,	12.01,	14.55,	1.29,	12.21,	9.11,	11.50,	14.93,	12.67,	14.50,	10.59,	1697,	1688
14,	8411,	7938,	8418,	8504,	9032,	8581,	8733,	8574,	8457,	8463,	9045,	9137,	8567,	9258,	14.25,	11.66,	13.17,	13.93,	12.01,	14.55,	1.29,	12.21,	9.11,	11.50,	14.95,	12.67,	14.50,	10.59,	1696,	1687
15,	8383,	7911,	8391,	8478,	9030,	8592,	8754,	8556,	8444,	8447,	9025,	9122,	8551,	9244,	14.25,	11.66,	13.17,	13.93,	12.01,	14.55,	1.29,	12.21,	9.11,	11.50,	14.95,	12.65,	14.50,	10.59,	1695,	1686
16,	8347,	7892,	8363,	8458,	9026,	8585,	8727,	8503,	8409,	8406,	8991,	9091,	8525,	9219,	14.25,	11.66,	13.17,	13.93,	12.01,	14.55,	1.29,	12.21,	9.11,	11.50,	14.95,	12.65,	14.50,	10.59,	1695,	1686
17,	8333,	7894,	8359,	8462,	9019,	8555,	8678,	8489,	8403,	8380,	8986,	9078,	8514,	9199,	14.25,	11.66,	13.17,	13.93,	12.01,	14.55,	1.29,	12.21,	9.11,	11.50,	14.95,	12.65,	14.50,	10.59,	1695,	1683
18,	8344,	7901,	8369,	8471,	9029,	8563,	8691,	8517,	8423,	8389,	8992,	9088,	8520,	9204,	14.25,	11.66,	13.17,	13.93,	12.01,	14.55,	1.29,	12.21,	9.11,	11.50,	14.95,	12.65,	14.50,	10.59,	1694,	1684
19,	8344,	7888,	8358,	8455,	9034,	8578,	8709,	8519,	8425,	8406,	8982,	9080,	8518,	9203,	14.25,	11.66,	13.17,	13.93,	12.01,	14.55,	1.29,	12.21,	9.11,	11.50,	14.95,	12.65,	14.50,	10.59,	1696,	1683
20,	8324,	7864,	8334,	8440,	9014,	8565,	8695,	8498,	8415,	8398,	8963,	9056,	8498,	9184,	14.25,	11.66,	13.17,	13.93,	12.01,	14.55,	1.29,	12.21,	9.11,	11.50,	14.95,	12.65,	14.50,	10.59,	1695,	1685
21,	8310,	7861,	8322,	8445,	9009,	8552,	8671,	8485,	8412,	8384,	8950,	9043,	8484,	9169,	14.25,	11.66,	13.17,	13.93,	12.01,	14.55,	1.29,	12.21,	9.11,	11.50,	14.95,	12.65,	14.50,	10.59,	1696,	1686
22,	8291,	7856,	8306,	8431,	9020,	8546,	8659,	8469,	8402,	8373,	8941,	9028,	8472,	9156,	14.25,	11.66,	13.17,	13.93,	12.01,	14.55,	1.29,	12.21,	9.11,	11.50,	14.95,	12.65,	14.50,	10.59,	1695,	1686
23,	8272,	7846,	8291,	8412,	9022,	8553,	8676,	8460,	8390,	8360,	8935,	9019,	8460,	9145,	14.25,	11.66,	13.17,	13.93,	12.01,	14.55,	1.29,	12.21,	9.11,	11.50,	14.95,	12.65,	14.50,	10.59,	1696,	1688
24,	8288,	7864,	8302,	8431,	9026,	8588,	8716,	8488,	8405,	8376,	8946,	9034,	8479,	9162,	14.25,	11.66,	13.17,	13.93,	12.01,	14.55,	1.29,	12.21,	9.11,	11.50,	14.95,	12.65,	14.50,	10.59,	1696,	1687
25,	8322,	7884,	8322,	8444,	9037,	8611,	8751,	8520,	8433,	8394,	8961,	9048,	8511,	9192,	14.25,	11.66,	13.17,	13.93,	12.01,	14.55,	1.29,	12.21,	9.11,	11.50,	14.95,	12.65,	14.50,	10.59,	1696,	1688
26,	8323,	7874,	8319,	8426,	9031,	8584,	8742,	8520,	8434,	8379,	8957,	9041,	8507,	9193,	14.25,	11.66,	13.17,	13.93,	12.01,	14.55,	1.29,	12.21,	9.11,	11.50,	14.95,	12.65,	14.50,	10.59,	1696,	1688
27,	8321,	7877,	8312,	8434,	9016,	8573,	8721,	8521,	8436,	8385,	8954,	9049,	8496,	9188,	14.25,	11.66,	13.17,	13.93,	12.01,	14.55,	1.29,	12.21,	9.11,	11.50,	14.95,	12.65,	14.50,	10.59,	1696,	1688
28,	8328,	7884,	8310,	8453,	9010,	8587,	8707,	8509,	8439,	8394,	8955,	9062,	8499,	9192,	14.25,	11.66,	13.17,	13.93,	12.01,	14.55,	1.29,	12.21,	9.11,	11.50,	14.95,	12.65,	14.50,	10.59,	1697,	1688
29,	8306,	7854,	8292,	8422,	9000,	8558,	8656,	8452,	8405,	8360,	8933,	9038,	8483,	9178,	14.25,	11.66,	13.17,	13.93,	12.01,	14.55,	1.29,	12.21,	9.11,	11.50,	14.95,	12.65,	14.50,	10.59,	1696,	1689
30,	8287,	7841,	8279,	8403,	8999,	8527,	8619,	8428,	8385,	8346,	8915,	9017,	8464,	9162,	14.25,	11.66,	13.17,	13.93,	12.01,	14.55,	1.29,	12.21,	9.11,	11.50,	14.95,	12.65,	14.50,	10.59,	1697,	1687
31,	8293,	7855,	8274,	8427,	9010,	8548,	8648,	8448,	8399,	8363,	8922,	9017,	8465,	9160,	14.25,	11.66,	13.17,	13.93,	12.01,	14.55,	1.29,	12.21,	9.11,	11.50,	14.95,	12.65,	14.50,	10.59,	1696,	1688
32,	8298,	7849,	8257,	8413,	9016,	8591,	8712,	8465,	8412,	8369,	8925,	9014,	8470,	9168,	14.25,	11.66,	13.17,	13.93,	12.01,	14.55,	1.29,	12.21,	9.11,	11.50,	14.95,	12.65,	14.50,	10.59,	1697,	1686
33,	8301,	7848,	8246,	8391,	9017,	8625,	8760,	8488,	8420,	8375,	8918,	9010,	8475,	9178,	14.25,	11.66,	13.17,	13.93,	12.01,	14.55,	1.29,	12.21,	9.11,	11.50,	14.95,	12.65,	14.50,	10.59,	1697,	1686
34,	8274,	7849,	8226,	8406,	8998,	8589,	8707,	8469,	8403,	8355,	8886,	8980,	8443,	9145,	14.25,	11.66,	13.17,	13.93,	12.01,	14.55,	1.29,	12.21,	9.11,	11.50,	14.95,	12.65,	14.50,	10.59,	1698,	1686
35,	8238,	7829,	8205,	8417,	8979,	8529,	8615,	8413,	8370,	8305,	8831,	8936,	8385,	9094,	14.25,	11.66,	13.17,	13.93,	12.01,	14.55,	1.29,	12.21,	9.11,	11.50,	14.95,	12.65,	14.50,	10.59,	1697,	1685
36,	8252,	7835,	8219,	8431,	8993,	8553,	8641,	8410,	8367,	8299,	8805,	8939,	8369,	9096,	14.25,	11.66,	13.17,	13.93,	12.01,	14.55,	1.29,	12.21,	9.11,	11.50,	14.95,	12.65,	14.50,	10.59,	1697,	1687
37,	8271,	7858,	8233,	8457,	9004,	8579,	8677,	8420,	8374,	8313,	8803,	8957,	8374,	9110,	14.25,	11.66,	13.17,	13.93,	12.01,	14.55,	1.29,	12.21,	9.11,	11.50,	14.95,	12.65,	14.50,	10.59,	1698,	1685
38,	8273,	7866,	8236,	8470,	9005,	8552,	8636,	8403,	8372,	8309,	8801,	8961,	8380,	9114,	14.25,	11.66,	13.17,	13.93,	12.01,	14.55,	1.29,	12.21,	9.11,	11.50,	14.95,	12.65,	14.50,	10.59,	1697,	1687
39,	8309,	7892,	8261,	8481,	9031,	8575,	8660,	8448,	8407,	8335,	8827,	8987,	8415,	9146,	14.25,	11.66,	13.17,	13.93,	12.01,	14.55,	1.29,	12.21,	9.11,	11.50,	14.95,	12.65,	14.50,	10.59,	1697,	1686
40,	8333,	7910,	8272,	8491,	9050,	8612,	8713,	8501,	8441,	8361,	8855,	9007,	8444,	9171,	14.25,	11.66,	13.17,	13.93,	12.01,	14.55,	1.29,	12.21,	9.11,	11.50,	14.95,	12.65,	14.50,	10.59,	1696,	1687
41,	8304,	7887,	8250,	8470,	9027,	8582,	8680,	8472,	8431,	8348,	8852,	8994,	8434,	9156,	14.25,	11.66,	13.17,	13.93,	12.01,	14.55,	1.29,	12.21,	9.11,	11.50,	14.95,	12.65,	14.50,	10.59,	1698,	1685
42,	8298,	7882,	8244,	8462,	9018,	8573,	8659,	8449,	8424,	8346,	8860,	8995,	8437,	9155,	14.25,	11.66,	13.17,	13.93,	12.01,	14.55,	1.29,	12.21,	9.11,	11.50,	14.95,	12.65,	14.50,	10.59,	1696,	1687
43,	8330,	7913,	8273,	8501,	9052,	8618,	8721,	8482,	8444,	8366,	8888,	9016,	8458,	9177,	14.25,	11.66,	13.17,	13.93,	12.01,	14.55,	1.29,	12.21,	9.11,	11.50,	14.95,	12.65,	14.50,	10.59,	1697,	1686
44,	8325,	7917,	8268,	8511,	9054,	8619,	8739,	8486,	8444,	8361,	8882,	9005,	8452,	9166,	14.25,	11.66,	13.17,	13.93,	12.01,	14.55,	1.29,	12.21,	9.11,	11.50,	14.95,	12.65,	14.50,	10.59,	1696,	1686
45,	8296,	7885,	8227,	8472,	9013,	8572,	8676,	8450,	8412,	8336,	8846,	8979,	8433,	9134,	14.25,	11.66,	13.17,	13.93,	12.01,	14.55,	1.29,	12.21,	9.11,	11.50,	14.95,	12.65,	14.50,	10.59,	1696,	1687
46,	8300,	7875,	8227,	8463,	9013,	8567,	8657,	8452,	8415,	8339,	8854,	8986,	8435,	9145,	14.25,	11.66,	13.17,	13.93,	12.01,	14.55,	1.29,	12.21,	9.11,	11.50,	14.95,	12.65,	14.50,	10.59,	1697,	1686
47,	8314,	7893,	8252,	8486,	9049,	8616,	8720,	8487,	8447,	8356,	8883,	9000,	8446,	9172,	14.25,	11.66,	13.17,	13.93,	12.01,	14.55,	1.29,	12.21,	9.11,	11.50,	14.95,	12.65,	14.50,	10.59,	1696,	1688
48,	8303,	7898,	8246,	8485,	9032,	8630,	8753,	8493,	8446,	8350,	8869,	8987,	8441,	9163,	14.25,	11.66,	13.17,	13.93,	12.01,	14.55,	1.29,	12.21,	9.11,	11.50,	14.95,	12.65,	14.50,	10.59,	1697,	1686
49,	8291,	7877,	8231,	8476,	9001,	8591,	8703,	8478,	8432,	8341,	8844,	8970,	8426,	9139,	14.25,	11.66,	13.17,	13.93,	12.01,	14.55,	1.29,	12.21,	9.11,	11.50,	14.95,	12.65,	14.50,	10.59,	1696,	1686
50,	8294,	7868,	8235,	8481,	9023,	8566,	8650,	8474,	8439,	8339,	8842,	8966,	8411,	9129,	14.25,	11.66,	13.17,	13.93,	12.01,	14.55,	1.29,	12.21,	9.11,	11.50,	14.95,	12.65,	14.50,	10.59,	1697,	1684
51,	8302,	7882,	8243,	8483,	9040,	8584,	8670,	8478,	8446,	8338,	8845,	8961,	8412,	9134,	14.25,	11.66,	13.17,	13.93,	12.01,	14.55,	1.29,	12.21,	9.11,	11.50,	14.95,	12.65,	14.50,	10.59,	1697,	1684
52,	8307,	7894,	8243,	8484,	9032,	8608,	8733,	8490,	8453,	8346,	8844,	8958,	8420,	9139,	14.25,	11.66,	13.17,	13.93,	12.01,	14.55,	1.29,	12.21,	9.11,	11.50,	14.95,	12.65,	14.50,	10.59,	1698,	1683
53,	8302,	7889,	8240,	8487,	9032,	8600,	8720,	8480,	8458,	8348,	8843,	8960,	8411,	9135,	14.25,	11.66,	13.17,	13.93,	12.01,	14.55,	1.29,	12.21,	9.11,	11.50,	14.95,	12.65,	14.50,	10.59,	1697,	1683
54,	8295,	7875,	8235,	8479,	9025,	8567,	8637,	8434,	8438,	8328,	8842,	8959,	8403,	9126,	14.25,	11.66,	13.17,	13.93,	12.01,	14.55,	1.29,	12.21,	9.11,	11.50,	14.95,	12.65,	14.50,	10.59,	1698,	1682
55,	8302,	7875,	8246,	8477,	9026,	8575,	8651,	8421,	8434,	8310,	8849,	8963,	8421,	9137,	14.25,	11.66,	13.17,	13.93,	12.01,	14.55,	1.29,	12.21,	9.11,	11.50,	14.95,	12.65,	14.50,	10.59,	1697,	1683
56,	8317,	7890,	8260,	8490,	9047,	8623,	8738,	8453,	8458,	8316,	8851,	8972,	8437,	9157,	14.25,	11.66,	13.17,	13.93,	12.01,	14.55,	1.29,	12.21,	9.11,	11.50,	14.95,	12.65,	14.50,	10.59,	1697,	1683
57,	8320,	7896,	8261,	8499,	9043,	8623,	8728,	8458,	8463,	8335,	8853,	8979,	8436,	9154,	14.25,	11.66,	13.17,	13.93,	12.01,	14.55,	1.29,	12.21,	9.11,	11.50,	14.95,	12.65,	14.50,	10.59,	1696,	1685
58,	8327,	7898,	8277,	8511,	9037,	8593,	8672,	8447,	8465,	8348,	8866,	8991,	8437,	9157,	14.25,	11.66,	13.17,	13.93,	12.01,	14.55,	1.29,	12.21,	9.11,	11.50,	14.95,	12.65,	14.50,	10.59,	1697,	1686
59,	8339,	7911,	8295,	8517,	9057,	8598,	8687,	8465,	8483,	8352,	8852,	8991,	8436,	9169,	14.25,	11.66,	13.17,	13.93,	12.01,	14.55,	1.29,	12.21,	9.11,	11.50,	14.95,	12.65,	14.50,	10.59,	1696,	1688
60,	8332,	7909,	8285,	8508,	9056,	8610,	8713,	8470,	8485,	8349,	8842,	8987,	8433,	9169,	14.25,	11.66,	13.17,	13.93,	12.01,	14.55,	1.29,	12.21,	9.11,	11.50,	14.95,	12.65,	14.50,	10.59,	1697,	1688
61,	8318,	7892,	8282,	8504,	9034,	8586,	8681,	8442,	8470,	8347,	8891,	9002,	8451,	9167,	14.25,	11.66,	13.17,	13.93,	12.01,	14.55,	1.29,	12.21,	9.11,	11.50,	14.95,	12.65,	14.50,	10.59,	1696,	1690
62,	8325,	7884,	8294,	8490,	9030,	8569,	8651,	8434,	8485,	8363,	8956,	9021,	8495,	9179,	14.25,	11.66,	13.17,	13.93,	12.01,	14.55,	1.29,	12.21,	9.11,	11.50,	14.95,	12.65,	14.50,	10.59,	1697,	1690
63,	8330,	7868,	8287,	8453,	9028,	8570,	8647,	8448,	8504,	8390,	8977,	9023,	8517,	9185,	14.25,	11.66,	13.17,	13.93,	12.01,	14.55,	1.29,	12.21,	9.11,	11.50,	14.95,	12.65,	14.50,	10.59,	1697,	1690
64,	8316,	7854,	8278,	8449,	9029,	8583,	8668,	8451,	8498,	8395,	8972,	9027,	8502,	9175,	14.22,	11.66,	13.17,	13.93,	12.01,	14.55,	1.29,	12.21,	9.11,	11.50,	14.95,	12.65,	14.50,	10.59,	1697,	1692
65,	8312,	7869,	8289,	8487,	9049,	8613,	8711,	8459,	8500,	8390,	8982,	9043,	8501,	9173,	14.22,	11.66,	13.17,	13.93,	12.01,	14.55,	1.29,	12.21,	9.11,	11.50,	14.95,	12.65,	14.50,	10.59,	1698,	1691
66,	8322,	7881,	8304,	8496,	9046,	8611,	8704,	8479,	8517,	8400,	9001,	9057,	8522,	9183,	14.22,	11.66,	13.16,	13.93,	12.01,	14.55,	1.29,	12.21,	9.11,	11.50,	14.95,	12.65,	14.50,	10.59,	1696,	1693
67,	8333,	7870,	8313,	8484,	9020,	8581,	8667,	8493,	8528,	8420,	9010,	9058,	8529,	9188,	14.22,	11.66,	13.16,	13.97,	12.01,	14.55,	1.29,	12.21,	9.11,	11.50,	14.95,	12.65,	14.50,	10.59,	1697,	1693
68,	8349,	7875,	8319,	8496,	9025,	8586,	8677,	8494,	8531,	8432,	9012,	9061,	8536,	9195,	14.22,	11.66,	13.16,	13.97,	11.81,	14.55,	1.29,	12.21,	9.11,	11.50,	14.95,	12.65,	14.50,	10.59,	1697,	1693
69,	8352,	7884,	8313,	8501,	9047,	8608,	8698,	8483,	8519,	8421,	9010,	9062,	8544,	9198,	14.22,	11.66,	13.16,	13.97,	11.81,	14.55,	1.29,	12.21,	9.11,	11.50,	14.95,	12.65,	14.50,	10.59,	1697,	1693
70,	8323,	7859,	8290,	8479,	9038,	8588,	8664,	8463,	8498,	8400,	8994,	9038,	8525,	9175,	14.22,	11.66,	13.16,	13.97,	11.81,	14.55,	1.24,	12.21,	9.11,	11.50,	14.95,	12.65,	14.50,	10.59,	1696,	1694
71,	8308,	7842,	8283,	8476,	9025,	8563,	8637,	8459,	8499,	8403,	8987,	9024,	8510,	9162,	14.22,	11.66,	13.16,	13.97,	11.81,	14.55,	1.24,	12.22,	9.11,	11.50,	14.95,	12.65,	14.50,	10.59,	1697,	1692
72,	8327,	7861,	8294,	8498,	9037,	8588,	8694,	8483,	8516,	8414,	9007,	9042,	8528,	9180,	14.22,	11.66,	13.16,	13.97,	11.81,	14.55,	1.24,	12.22,	9.10,	11.50,	14.95,	12.65,	14.50,	10.59,	1696,	1692
73,	8327,	7870,	8291,	8501,	9039,	8607,	8730,	8499,	8518,	8410,	9008,	9037,	8538,	9187,	14.22,	11.66,	13.16,	13.97,	11.81,	14.55,	1.24,	12.22,	9.10,	11.53,	14.95,	12.65,	14.50,	10.59,	1696,	1690
74,	8307,	7852,	8275,	8488,	9024,	8585,	8685,	8492,	8515,	8408,	8987,	9007,	8522,	9174,	14.22,	11.66,	13.16,	13.97,	11.81,	14.55,	1.24,	12.22,	9.10,	11.53,	14.95,	12.65,	14.50,	10.59,	1695,	1689
75,	8298,	7845,	8261,	8483,	9022,	8573,	8660,	8476,	8504,	8400,	8969,	8990,	8496,	9155,	14.22,	11.66,	13.16,	13.97,	11.81,	14.55,	1.24,	12.22,	9.10,	11.53,	14.95,	12.62,	14.50,	10.59,	1696,	1689
76,	8300,	7850,	8251,	8484,	9029,	8581,	8668,	8447,	8470,	8379,	8946,	8984,	8471,	9142,	14.22,	11.66,	13.16,	13.97,	11.81,	14.55,	1.24,	12.22,	9.10,	11.53,	14.95,	12.62,	14.46,	10.59,	1696,	1686
77,	8299,	7850,	8249,	8486,	9033,	8581,	8650,	8429,	8458,	8372,	8937,	8984,	8465,	9140,	14.22,	11.66,	13.16,	13.97,	11.81,	14.55,	1.24,	12.22,	9.10,	11.53,	14.95,	12.62,	14.46,	10.58,	1695,	1688
78,	8307,	7860,	8256,	8496,	9044,	8598,	8668,	8450,	8485,	8388,	8955,	8997,	8477,	9149,	14.22,	11.66,	13.16,	13.97,	11.81,	14.55,	1.24,	12.22,	9.10,	11.53,	14.93,	12.62,	14.46,	10.58,	1697,	1687
79,	8301,	7859,	8256,	8490,	9042,	8609,	8694,	8464,	8491,	8391,	8952,	8992,	8469,	9145,	14.22,	11.66,	13.16,	13.97,	11.81,	14.55,	1.24,	12.22,	9.10,	11.53,	14.93,	12.65,	14.46,	10.58,	1696,	1687
80,	8273,	7829,	8237,	8465,	9015,	8572,	8637,	8438,	8465,	8373,	8926,	8967,	8446,	9127,	14.22,	11.66,	13.16,	13.97,	11.81,	14.55,	1.24,	12.22,	9.10,	11.53,	14.93,	12.65,	14.47,	10.58,	1697,	1687
81,	8276,	7833,	8236,	8469,	9013,	8564,	8623,	8432,	8463,	8366,	8934,	8980,	8457,	9135,	14.22,	11.66,	13.16,	13.97,	11.81,	14.55,	1.24,	12.22,	9.10,	11.53,	14.93,	12.65,	14.47,	10.59,	1696,	1686
82,	8306,	7866,	8260,	8497,	9040,	8606,	8698,	8458,	8481,	8381,	8965,	9012,	8484,	9163,	14.22,	11.66,	13.16,	13.97,	11.81,	14.55,	1.24,	12.22,	9.10,	11.53,	14.96,	12.65,	14.47,	10.59,	1697,	1686
83,	8318,	7868,	8270,	8506,	9048,	8618,	8716,	8481,	8493,	8400,	8967,	9013,	8484,	9169,	14.22,	11.66,	13.16,	13.97,	11.81,	14.55,	1.24,	12.22,	9.10,	11.53,	14.96,	12.62,	14.47,	10.59,	1697,	1685
84,	8298,	7846,	8254,	8489,	9031,	8586,	8659,	8478,	8487,	8388,	8941,	8989,	8464,	9154,	14.22,	11.66,	13.16,	13.97,	11.81,	14.55,	1.24,	12.22,	9.10,	11.53,	14.96,	12.62,	14.50,	10.59,	1699,	1685
85,	8276,	7828,	8237,	8468,	9013,	8564,	8626,	8454,	8458,	8361,	8928,	8972,	8454,	9139,	14.22,	11.66,	13.16,	13.97,	11.81,	14.55,	1.24,	12.22,	9.10,	11.53,	14.96,	12.62,	14.50,	10.58,	1698,	1685
86,	8273,	7823,	8232,	8462,	9008,	8573,	8637,	8437,	8442,	8360,	8937,	8976,	8459,	9132,	14.22,	11.66,	13.16,	13.97,	11.81,	14.55,	1.24,	12.22,	9.10,	11.53,	14.95,	12.62,	14.50,	10.58,	1697,	1686
87,	8273,	7831,	8235,	8471,	9009,	8575,	8637,	8439,	8453,	8380,	8941,	8981,	8461,	9131,	14.22,	11.66,	13.16,	13.97,	11.81,	14.55,	1.24,	12.22,	9.10,	11.53,	14.95,	12.64,	14.50,	10.58,	1699,	1685
88,	8274,	7845,	8245,	8484,	9021,	8578,	8649,	8444,	8456,	8389,	8949,	8983,	8466,	9138,	14.22,	11.66,	13.16,	13.97,	11.81,	14.55,	1.24,	12.22,	9.10,	11.53,	14.95,	12.64,	14.47,	10.58,	1697,	1686
89,	8299,	7861,	8269,	8501,	9033,	8613,	8709,	8453,	8449,	8375,	8965,	9000,	8477,	9158,	14.22,	11.66,	13.16,	13.97,	11.81,	14.55,	1.24,	12.22,	9.10,	11.53,	14.95,	12.64,	14.47,	10.56,	1698,	1684
90,	8333,	7879,	8291,	8513,	9032,	8640,	8750,	8478,	8461,	8376,	8965,	9020,	8484,	9179,	14.22,	11.66,	13.16,	13.97,	11.81,	14.55,	1.24,	12.22,	9.10,	11.53,	14.96,	12.64,	14.47,	10.56,	1697,	1685
91,	8328,	7876,	8289,	8508,	9027,	8600,	8680,	8488,	8476,	8403,	8974,	9028,	8495,	9183,	14.22,	11.66,	13.16,	13.97,	11.81,	14.55,	1.24,	12.22,	9.10,	11.53,	14.96,	12.62,	14.47,	10.56,	1698,	1686
92,	8302,	7852,	8274,	8504,	9025,	8550,	8591,	8461,	8469,	8412,	8991,	9030,	8502,	9174,	14.22,	11.66,	13.16,	13.97,	11.81,	14.55,	1.24,	12.22,	9.10,	11.53,	14.96,	12.62,	14.50,	10.56,	1698,	1685
93,	8296,	7847,	8269,	8512,	9029,	8562,	8607,	8438,	8459,	8394,	8983,	9024,	8489,	9164,	14.22,	11.66,	13.16,	13.97,	11.81,	14.55,	1.24,	12.22,	9.10,	11.53,	14.96,	12.62,	14.50,	10.59,	1697,	1687
94,	8320,	7873,	8286,	8534,	9048,	8607,	8684,	8463,	8476,	8400,	8986,	9029,	8489,	9179,	14.22,	11.66,	13.16,	13.97,	11.81,	14.55,	1.24,	12.22,	9.10,	11.53,	14.93,	12.62,	14.50,	10.59,	1697,	1686
95,	8344,	7897,	8303,	8552,	9068,	8630,	8726,	8507,	8510,	8429,	9011,	9054,	8522,	9209,	14.22,	11.66,	13.16,	13.97,	11.81,	14.55,	1.24,	12.22,	9.10,	11.53,	14.93,	12.65,	14.50,	10.59,	1697,	1687
96,	8333,	7882,	8285,	8532,	9057,	8607,	8696,	8499,	8511,	8422,	8994,	9049,	8518,	9196,	14.22,	11.66,	13.16,	13.97,	11.81,	14.55,	1.24,	12.22,	9.10,	11.53,	14.93,	12.65,	14.46,	10.59,	1695,	1686
97,	8307,	7860,	8259,	8514,	9042,	8583,	8661,	8456,	8486,	8401,	8963,	9011,	8471,	9156,	14.22,	11.66,	13.16,	13.97,	11.81,	14.55,	1.24,	12.22,	9.10,	11.53,	14.93,	12.65,	14.46,	10.56,	1696,	1688
98,	8303,	7860,	8253,	8521,	9042,	8581,	8649,	8452,	8484,	8406,	8974,	8999,	8467,	9150,	14.22,	11.66,	13.16,	13.97,	11.81,	14.55,	1.24,	12.22,	9.10,	11.53,	14.95,	12.65,	14.46,	10.56,	1696,	1686
99,	8310,	7865,	8258,	8522,	9039,	8578,	8647,	8475,	8494,	8412,	8980,	9016,	8490,	9165,	14.22,	11.66,	13.16,	13.97,	11.81,	14.55,	1.24,	12.22,	9.10,	11.53,	14.95,	12.67,	14.46,	10.56,	1695,	1689
100,	8306,	7864,	8257,	8513,	9038,	8578,	8655,	8469,	8479,	8398,	8965,	9017,	8484,	9167,	14.22,	11.66,	13.16,	13.97,	11.81,	14.55,	1.24,	12.22,	9.10,	11.53,	14.95,	12.67,	14.50,	10.56,	1696,	1687
101,	8303,	7866,	8252,	8517,	9049,	8600,	8686,	8451,	8459,	8381,	8971,	9005,	8473,	9166,	14.22,	11.66,	13.16,	13.97,	11.81,	14.55,	1.24,	12.22,	9.10,	11.53,	14.95,	12.67,	14.50,	10.58,	1696,	1687
102,	8288,	7848,	8231,	8501,	9038,	8612,	8712,	8450,	8434,	8348,	8948,	8985,	8453,	9149,	14.22,	11.66,	13.16,	13.97,	11.81,	14.55,	1.24,	12.22,	9.10,	11.53,	14.93,	12.67,	14.50,	10.58,	1696,	1687
103,	8223,	7779,	8166,	8432,	8981,	8560,	8647,	8403,	8373,	8276,	8858,	8924,	8383,	9084,	14.22,	11.66,	13.16,	13.97,	11.81,	14.55,	1.24,	12.22,	9.10,	11.53,	14.93,	12.67,	14.50,	10.58,	1696,	1686
104,	8169,	7722,	8109,	8371,	8932,	8517,	8575,	8346,	8332,	8220,	8795,	8858,	8321,	9037,	14.22,	11.66,	13.16,	13.97,	11.81,	14.55,	1.24,	12.22,	9.10,	11.53,	14.93,	12.67,	14.50,	10.58,	1696,	1687
105,	8185,	7733,	8125,	8375,	8948,	8550,	8606,	8371,	8367,	8241,	8819,	8864,	8341,	9056,	14.22,	11.66,	13.16,	13.97,	11.81,	14.55,	1.24,	12.22,	9.10,	11.53,	14.93,	12.67,	14.50,	10.58,	1696,	1687
106,	8247,	7792,	8193,	8437,	9008,	8594,	8668,	8454,	8440,	8333,	8898,	8942,	8424,	9114,	14.22,	11.66,	13.16,	13.97,	11.81,	14.55,	1.24,	12.22,	9.10,	11.53,	14.93,	12.67,	14.50,	10.58,	1696,	1688
107,	8312,	7855,	8263,	8509,	9051,	8610,	8683,	8509,	8500,	8427,	8987,	9026,	8518,	9188,	14.22,	11.66,	13.16,	13.97,	11.81,	14.55,	1.24,	12.22,	9.10,	11.53,	14.93,	12.67,	14.50,	10.58,	1695,	1686
108,	8337,	7874,	8283,	8531,	9049,	8601,	8653,	8483,	8504,	8443,	9024,	9050,	8549,	9221,	14.22,	11.66,	13.16,	13.97,	11.81,	14.55,	1.24,	12.22,	9.10,	11.53,	14.93,	12.67,	14.47,	10.58,	1695,	1687
109,	8324,	7866,	8266,	8520,	9035,	8586,	8637,	8437,	8473,	8408,	9009,	9026,	8521,	9201,	14.22,	11.66,	13.16,	13.97,	11.81,	14.55,	1.24,	12.22,	9.10,	11.53,	14.93,	12.67,	14.47,	10.56,	1694,	1686
110,	8315,	7872,	8265,	8525,	9042,	8592,	8657,	8441,	8471,	8401,	9000,	9018,	8510,	9187,	14.22,	11.66,	13.16,	13.97,	11.81,	14.55,	1.24,	12.22,	9.10,	11.53,	14.95,	12.67,	14.47,	10.56,	1695,	1686
111,	8308,	7874,	8266,	8530,	9045,	8591,	8644,	8456,	8482,	8412,	8994,	9017,	8513,	9185,	14.22,	11.66,	13.16,	13.97,	11.81,	14.55,	1.24,	12.22,	9.10,	11.53,	14.95,	12.62,	14.47,	10.56,	1694,	1684
112,	8292,	7856,	8248,	8515,	9031,	8575,	8614,	8434,	8467,	8391,	8978,	9004,	8496,	9173,	14.22,	11.66,	13.16,	13.97,	11.81,	14.55,	1.24,	12.22,	9.10,	11.53,	14.95,	12.62,	14.49,	10.56,	1695,	1684
113,	8288,	7848,	8238,	8508,	9021,	8578,	8628,	8423,	8459,	8375,	8984,	9005,	8493,	9168,	14.22,	11.66,	13.16,	13.97,	11.81,	14.55,	1.24,	12.22,	9.10,	11.53,	14.95,	12.62,	14.49,	10.55,	1695,	1684
114,	8296,	7857,	8244,	8514,	9027,	8591,	8638,	8443,	8468,	8398,	9004,	9019,	8505,	9180,	14.22,	11.66,	13.16,	13.97,	11.81,	14.55,	1.24,	12.22,	9.10,	11.53,	14.96,	12.62,	14.49,	10.55,	1695,	1685
115,	8302,	7864,	8249,	8516,	9037,	8589,	8629,	8454,	8470,	8409,	9000,	9016,	8501,	9184,	14.22,	11.66,	13.16,	13.97,	11.81,	14.55,	1.24,	12.22,	9.10,	11.53,	14.96,	12.64,	14.49,	10.55,	1695,	1686
116,	8305,	7870,	8250,	8519,	9044,	8595,	8649,	8449,	8470,	8390,	8986,	9009,	8493,	9177,	14.22,	11.66,	13.16,	13.97,	11.81,	14.55,	1.24,	12.22,	9.10,	11.53,	14.96,	12.64,	14.47,	10.55,	1695,	1688
117,	8300,	7862,	8238,	8511,	9036,	8606,	8655,	8421,	8457,	8372,	8973,	9002,	8482,	9164,	14.22,	11.66,	13.16,	13.97,	11.81,	14.55,	1.24,	12.22,	9.10,	11.53,	14.96,	12.64,	14.47,	10.59,	1696,	1689
118,	8279,	7836,	8217,	8486,	9013,	8591,	8637,	8402,	8440,	8365,	8956,	8980,	8460,	9151,	14.22,	11.66,	13.16,	13.97,	11.81,	14.55,	1.24,	12.22,	9.10,	11.53,	14.95,	12.64,	14.47,	10.59,	1695,	1692
119,	8261,	7823,	8203,	8475,	9001,	8554,	8628,	8405,	8435,	8349,	8943,	8965,	8445,	9141,	14.22,	11.66,	13.16,	13.97,	11.81,	14.55,	1.24,	12.22,	9.10,	11.53,	14.95,	12.62,	14.47,	10.59,	1697,	1691
120,	8265,	7829,	8210,	8477,	9007,	8538,	8620,	8402,	8430,	8334,	8937,	8971,	8445,	9140,	14.22,	11.66,	13.16,	13.97,	11.81,	14.55,	1.24,	12.22,	9.10,	11.53,	14.95,	12.62,	14.46,	10.59,	1696,	1690
121,	8274,	7836,	8215,	8477,	9010,	8555,	8632,	8401,	8430,	8343,	8944,	8974,	8455,	9145,	14.22,	11.66,	13.16,	13.97,	11.81,	14.55,	1.24,	12.22,	9.10,	11.53,	14.95,	12.62,	14.46,	10.55,	1697,	1691
122,	8264,	7829,	8201,	8478,	9004,	8556,	8638,	8405,	8435,	8349,	8945,	8959,	8452,	9136,	14.22,	11.66,	13.16,	13.97,	11.81,	14.55,	1.24,	12.22,	9.10,	11.53,	14.96,	12.62,	14.46,	10.55,	1698,	1688
123,	8242,	7814,	8180,	8470,	8995,	8525,	8601,	8412,	8435,	8344,	8928,	8939,	8437,	9114,	14.22,	11.66,	13.16,	13.97,	11.81,	14.55,	1.24,	12.22,	9.10,	11.53,	14.96,	12.64,	14.46,	10.55,	1697,	1688
124,	8232,	7810,	8170,	8455,	8987,	8514,	8592,	8412,	8432,	8345,	8913,	8932,	8431,	9107,	14.22,	11.66,	13.16,	13.97,	11.81,	14.55,	1.24,	12.22,	9.10,	11.53,	14.96,	12.64,	14.46,	10.55,	1697,	1688
125,	8235,	7810,	8166,	8447,	8981,	8525,	8621,	8389,	8421,	8340,	8914,	8929,	8432,	9114,	14.22,	11.66,	13.16,	13.97,	11.81,	14.55,	1.24,	12.22,	9.10,	11.53,	14.96,	12.64,	14.46,	10.56,	1697,	1688
126,	8244,	7818,	8161,	8448,	8991,	8530,	8627,	8375,	8409,	8324,	8921,	8926,	8435,	9122,	14.22,	11.66,	13.16,	13.97,	11.81,	14.55,	1.24,	12.22,	9.10,	11.53,	14.98,	12.64,	14.46,	10.56,	1698,	1687
127,	8254,	7827,	8167,	8457,	9008,	8540,	8631,	8393,	8414,	8321,	8919,	8939,	8441,	9129,	14.22,	11.66,	13.16,	13.97,	11.81,	14.55,	1.24,	12.22,	9.10,	11.53,	14.98,	12.67,	14.46,	10.56,	1697,	1689
0,	8218,	7798,	8131,	8426,	8975,	8495,	8588,	8334,	8369,	8287,	8904,	8953,	8404,	9083,	14.22,	11.66,	13.16,	13.97,	11.81,	14.55,	1.24,	12.22,	9.10,	11.53,	14.98,	12.67,	14.46,	10.56,	1697,	1688
1,	8237,	7813,	8141,	8437,	8994,	8510,	8606,	8340,	8383,	8295,	8917,	8974,	8425,	9098,	14.22,	11.64,	13.16,	13.97,	11.81,	14.55,	1.24,	12.22,	9.10,	11.53,	14.98,	12.67,	14.46,	10.56,	1698,	1687
2,	8248,	7819,	8152,	8453,	9008,	8542,	8653,	8363,	8404,	8321,	8923,	8985,	8446,	9112,	14.22,	11.64,	13.17,	13.97,	11.81,	14.55,	1.24,	12.22,	9.10,	11.53,	14.98,	12.67,	14.46,	10.56,	1697,	1687
3,	8227,	7807,	8132,	8435,	8985,	8521,	8614,	8342,	8391,	8313,	8908,	8960,	8426,	9087,	14.22,	11.64,	13.17,	13.96,	11.81,	14.55,	1.24,	12.22,	9.10,	11.53,	14.98,	12.67,	14.46,	10.56,	1698,	1687
4,	8222,	7808,	8119,	8421,	8974,	8489,	8545,	8327,	8391,	8300,	8901,	8950,	8413,	9072,	14.22,	11.64,	13.17,	13.96,	11.81,	14.55,	1.24,	12.22,	9.10,	11.53,	14.98,	12.67,	14.46,	10.56,	1698,	1685
5,	8235,	7814,	8125,	8434,	8996,	8507,	8575,	8362,	8413,	8307,	8910,	8965,	8427,	9083,	14.22,	11.64,	13.17,	13.96,	11.81,	14.56,	1.24,	12.22,	9.10,	11.53,	14.98,	12.67,	14.46,	10.56,	1696,	1686
6,	8241,	7823,	8135,	8453,	9006,	8531,	8631,	8405,	8425,	8326,	8920,	8972,	8438,	9090,	14.22,	11.64,	13.17,	13.96,	11.81,	14.56,	1.29,	12.22,	9.10,	11.53,	14.98,	12.67,	14.46,	10.56,	1697,	1685
7,	8251,	7841,	8143,	8465,	9004,	8528,	8631,	8409,	8436,	8342,	8932,	8973,	8451,	9097,	14.22,	11.64,	13.17,	13.96,	11.81,	14.56,	1.29,	12.25,	9.10,	11.53,	14.98,	12.67,	14.46,	10.56,	1697,	1686
8,	8266,	7849,	8145,	8468,	9010,	8534,	8630,	8403,	8452,	8345,	8949,	8984,	8473,	9109,	14.22,	11.64,	13.17,	13.96,	11.81,	14.56,	1.29,	12.25,	9.10,	11.53,	14.98,	12.67,	14.46,	10.56,	1697,	1686
9,	8269,	7851,	8146,	8467,	9020,	8541,	8633,	8420,	8465,	8357,	8967,	8998,	8487,	9119,	14.22,	11.64,	13.17,	13.96,	11.81,	14.56,	1.29,	12.25,	9.10,	11.51,	14.98,	12.67,	14.46,	10.56,	1696,	1686
10,	8281,	7872,	8159,	8486,	9031,	8546,	8638,	8430,	8475,	8387,	8979,	9008,	8497,	9130,	14.22,	11.64,	13.17,	13.96,	11.81,	14.56,	1.29,	12.25,	9.10,	11.51,	14.96,	12.67,	14.46,	10.56,	1697,	1685
11,	8292,	7886,	8168,	8497,	9031,	8546,	8636,	8402,	8460,	8379,	8973,	9008,	8494,	9128,	14.22,	11.64,	13.17,	13.96,	11.81,	14.56,	1.29,	12.25,	9.10,	11.51,	14.96,	12.62,	14.46,	10.56,	1696,	1686
12,	8282,	7871,	8165,	8484,	9021,	8540,	8622,	8386,	8445,	8350,	8969,	9007,	8488,	9127,	14.22,	11.64,	13.17,	13.96,	11.81,	14.56,	1.29,	12.25,	9.10,	11.51,	14.96,	12.62,	14.49,	10.56,	1697,	1686
13,	8282,	7869,	8166,	8489,	9029,	8562,	8643,	8410,	8461,	8369,	8983,	9017,	8505,	9146,	14.22,	11.64,	13.17,	13.96,	11.81,	14.56,	1.29,	12.25,	9.10,	11.51,	14.96,	12.62,	14.49,	10.59,	1696,	1686
14,	8289,	7883,	8168,	8499,	9041,	8582,	8674,	8423,	8472,	8383,	8986,	9014,	8517,	9152,	14.22,	11.64,	13.17,	13.96,	11.81,	14.56,	1.29,	12.25,	9.10,	11.51,	14.96,	12.62,	14.49,	10.59,	1696,	1686
15,	8278,	7872,	8155,	8484,	9032,	8559,	8646,	8407,	8457,	8357,	8971,	8997,	8502,	9136,	14.22,	11.64,	13.17,	13.96,	11.81,	14.56,	1.29,	12.25,	9.10,	11.51,	14.96,	12.65,	14.49,	10.59,	1696,	1684
16,	8265,	7858,	8147,	8474,	9020,	8536,	8614,	8407,	8452,	8347,	8968,	8994,	8491,	9137,	14.22,	11.64,	13.17,	13.96,	11.81,	14.56,	1.29,	12.25,	9.10,	11.51,	14.96,	12.65,	14.49,	10.59,	1696,	1685
17,	8272,	7874,	8151,	8483,	9027,	8564,	8656,	8430,	8466,	8358,	8973,	8998,	8499,	9151,	14.22,	11.64,	13.17,	13.96,	11.81,	14.56,	1.29,	12.25,	9.10,	11.51,	14.96,	12.65,	14.49,	10.59,	1696,	1683
18,	8269,	7877,	8140,	8477,	9037,	8583,	8681,	8431,	8463,	8356,	8955,	8987,	8492,	9139,	14.22,	11.64,	13.17,	13.96,	11.81,	14.56,	1.29,	12.25,	9.10,	11.51,	14.96,	12.65,	14.49,	10.59,	1695,	1684
19,	8253,	7861,	8131,	8467,	9031,	8566,	8653,	8400,	8445,	8341,	8944,	8973,	8473,	9124,	14.22,	11.64,	13.17,	13.96,	11.81,	14.56,	1.29,	12.25,	9.10,	11.51,	14.96,	12.65,	14.49,	10.59,	1696,	1684
20,	8269,	7872,	8143,	8481,	9034,	8569,	8657,	8393,	8448,	8349,	8971,	8990,	8488,	9140,	14.22,	11.64,	13.17,	13.96,	11.81,	14.56,	1.29,	12.25,	9.10,	11.51,	14.96,	12.65,	14.49,	10.59,	1695,	1684
21,	8281,	7876,	8151,	8482,	9034,	8568,	8653,	8413,	8463,	8367,	8986,	9012,	8510,	9158,	14.22,	11.64,	13.17,	13.96,	11.81,	14.56,	1.29,	12.25,	9.10,	11.51,	14.96,	12.65,	14.49,	10.59,	1696,	1686
22,	8266,	7851,	8141,	8456,	9015,	8531,	8590,	8413,	8465,	8374,	8970,	9004,	8496,	9147,	14.22,	11.64,	13.17,	13.96,	11.81,	14.56,	1.29,	12.25,	9.10,	11.51,	14.96,	12.65,	14.49,	10.59,	1695,	1687
23,	8266,	7849,	8132,	8458,	9009,	8522,	8575,	8397,	8467,	8378,	8967,	8993,	8490,	9143,	14.22,	11.64,	13.17,	13.96,	11.81,	14.56,	1.29,	12.25,	9.10,	11.51,	14.96,	12.65,	14.49,	10.59,	1696,	1688
24,	8283,	7875,	8146,	8488,	9035,	8576,	8669,	8421,	8476,	8381,	8980,	9010,	8511,	9169,	14.22,	11.64,	13.17,	13.96,	11.81,	14.56,	1.29,	12.25,	9.10,	11.51,	14.96,	12.65,	14.49,	10.59,	1695,	1689
25,	8283,	7867,	8153,	8466,	9038,	8595,	8702,	8460,	8485,	8378,	8980,	9016,	8512,	9177,	14.22,	11.64,	13.17,	13.96,	11.81,	14.56,	1.29,	12.25,	9.10,	11.51,	14.96,	12.65,	14.49,	10.59,	1696,	1690
26,	8280,	7835,	8138,	8419,	9010,	8557,	8634,	8460,	8490,	8378,	8968,	8994,	8504,	9170,	14.22,	11.64,	13.17,	13.96,	11.81,	14.56,	1.29,	12.25,	9.10,	11.51,	14.96,	12.65,	14.49,	10.59,	1696,	1688
27,	8289,	7847,	8139,	8444,	9016,	8561,	8637,	8422,	8475,	8390,	8960,	8993,	8514,	9177,	14.22,	11.64,	13.17,	13.96,	11.81,	14.56,	1.29,	12.25,	9.10,	11.51,	14.96,	12.65,	14.49,	10.59,	1695,	1689
28,	8295,	7881,	8156,	8506,	9040,	8595,	8686,	8390,	8447,	8364,	8958,	9012,	8510,	9179,	14.22,	11.64,	13.17,	13.96,	11.81,	14.56,	1.29,	12.25,	9.10,	11.51,	14.96,	12.65,	14.49,	10.59,	1697,	1688
29,	8280,	7874,	8153,	8513,	9022,	8565,	8642,	8380,	8428,	8315,	8925,	9004,	8475,	9159,	14.22,	11.64,	13.17,	13.96,	11.81,	14.56,	1.29,	12.25,	9.10,	11.51,	14.96,	12.65,	14.49,	10.59,	1696,	1688
30,	8251,	7845,	8125,	8491,	8997,	8515,	8572,	8381,	8419,	8300,	8873,	8962,	8438,	9127,	14.22,	11.64,	13.17,	13.96,	11.81,	14.56,	1.29,	12.25,	9.10,	11.51,	14.96,	12.65,	14.49,	10.59,	1696,	1688
31,	8245,	7853,	8123,	8509,	9012,	8532,	8594,	8391,	8419,	8309,	8866,	8942,	8432,	9113,	14.22,	11.64,	13.17,	13.96,	11.81,	14.56,	1.29,	12.25,	9.10,	11.51,	14.96,	12.65,	14.49,	10.59,	1696,	1688
32,	8259,	7871,	8138,	8529,	9021,	8560,	8628,	8395,	8421,	8313,	8871,	8954,	8445,	9127,	14.22,	11.64,	13.17,	13.96,	11.81,	14.56,	1.29,	12.25,	9.10,	11.51,	14.96,	12.65,	14.49,	10.59,	1697,	1688
33,	8257,	7865,	8128,	8513,	8999,	8546,	8616,	8380,	8416,	8315,	8856,	8954,	8444,	9136,	14.22,	11.64,	13.17,	13.96,	11.81,	14.56,	1.29,	12.25,	9.10,	11.51,	14.96,	12.65,	14.49,	10.59,	1696,	1687
34,	8246,	7855,	8116,	8503,	8998,	8546,	8616,	8384,	8413,	8320,	8865,	8936,	8431,	9124,	14.22,	11.64,	13.17,	13.96,	11.81,	14.56,	1.29,	12.25,	9.10,	11.51,	14.96,	12.65,	14.49,	10.59,	1697,	1687
35,	8230,	7841,	8098,	8499,	9011,	8567,	8641,	8395,	8415,	8313,	8863,	8911,	8418,	9099,	14.22,	11.64,	13.17,	13.96,	11.81,	14.56,	1.29,	12.25,	9.10,	11.51,	14.96,	12.65,	14.49,	10.59,	1696,	1687
36,	8200,	7827,	8063,	8481,	9005,	8561,	8641,	8375,	8401,	8300,	8820,	8892,	8401,	9074,	14.22,	11.64,	13.17,	13.96,	11.81,	14.56,	1.29,	12.25,	9.10,	11.51,	14.96,	12.65,	14.49,	10.59,	1697,	1686
37,	8198,	7838,	8066,	8482,	9006,	8548,	8627,	8376,	8398,	8304,	8818,	8898,	8405,	9081,	14.22,	11.64,	13.17,	13.96,	11.81,	14.56,	1.29,	12.25,	9.10,	11.51,	14.96,	12.65,	14.49,	10.59,	1696,	1685
38,	8223,	7861,	8095,	8507,	9019,	8572,	8660,	8431,	8421,	8322,	8856,	8911,	8428,	9106,	14.22,	11.64,	13.17,	13.96,	11.81,	14.56,	1.29,	12.25,	9.10,	11.51,	14.96,	12.65,	14.49,	10.59,	1697,	1685
39,	8215,	7856,	8087,	8506,	9013,	8582,	8672,	8429,	8417,	8318,	8856,	8902,	8429,	9097,	14.22,	11.64,	13.17,	13.96,	11.81,	14.56,	1.29,	12.25,	9.10,	11.51,	14.96,	12.65,	14.49,	10.59,	1695,	1684
40,	8198,	7841,	8067,	8496,	9004,	8558,	8619,	8375,	8398,	8307,	8847,	8899,	8426,	9085,	14.22,	11.64,	13.17,	13.96,	11.81,	14.56,	1.29,	12.25,	9.10,	11.51,	14.96,	12.65,	14.49,	10.59,	1697,	1683
41,	8210,	7850,	8082,	8503,	9014,	8556,	8601,	8381,	8411,	8324,	8863,	8916,	8443,	9102,	14.22,	11.64,	13.17,	13.96,	11.81,	14.56,	1.29,	12.25,	9.10,	11.51,	14.96,	12.65,	14.49,	10.59,	1695,	1683
42,	8208,	7851,	8085,	8494,	9010,	8555,	8615,	8397,	8414,	8318,	8851,	8908,	8430,	9093,	14.22,	11.64,	13.17,	13.96,	11.81,	14.56,	1.29,	12.25,	9.10,	11.51,	14.96,	12.65,	14.49,	10.59,	1696,	1683
43,	8181,	7830,	8064,	8481,	8994,	8535,	8591,	8360,	8384,	8283,	8822,	8884,	8402,	9060,	14.22,	11.64,	13.17,	13.96,	11.81,	14.56,	1.29,	12.25,	9.10,	11.51,	14.96,	12.65,	14.49,	10.59,	1696,	1682
44,	8188,	7834,	8078,	8495,	9000,	8548,	8592,	8346,	8376,	8283,	8825,	8893,	8416,	9069,	14.22,	11.64,	13.17,	13.96,	11.81,	14.56,	1.29,	12.25,	9.10,	11.51,	14.96,	12.65,	14.49,	10.59,	1696,	1682
45,	8205,	7842,	8091,	8497,	9009,	8581,	8644,	8374,	8393,	8300,	8828,	8901,	8430,	9089,	14.22,	11.64,	13.17,	13.96,	11.81,	14.56,	1.29,	12.25,	9.10,	11.51,	14.96,	12.65,	14.49,	10.59,	1696,	1679
46,	8196,	7836,	8073,	8480,	9004,	8595,	8671,	8381,	8395,	8290,	8818,	8885,	8417,	9080,	14.22,	11.64,	13.17,	13.96,	11.81,	14.56,	1.29,	12.25,	9.10,	11.51,	14.96,	12.65,	14.49,	10.59,	1695,	1680
47,	8195,	7844,	8073,	8486,	9016,	8607,	8676,	8387,	8389,	8278,	8814,	8882,	8413,	9083,	14.22,	11.64,	13.17,	13.96,	11.81,	14.56,	1.29,	12.25,	9.10,	11.51,	14.96,	12.65,	14.49,	10.59,	1696,	1679
48,	8192,	7840,	8076,	8487,	9017,	8600,	8660,	8398,	8381,	8278,	8800,	8875,	8406,	9078,	14.22,	11.64,	13.17,	13.96,	11.81,	14.56,	1.29,	12.25,	9.10,	11.51,	14.96,	12.65,	14.49,	10.59,	1695,	1680
49,	8171,	7817,	8065,	8464,	8988,	8572,	8619,	8382,	8376,	8279,	8798,	8861,	8398,	9059,	14.22,	11.64,	13.17,	13.96,	11.81,	14.56,	1.29,	12.25,	9.10,	11.51,	14.96,	12.65,	14.49,	10.59,	1695,	1680
50,	8171,	7821,	8063,	8457,	8980,	8564,	8597,	8359,	8379,	8282,	8823,	8866,	8421,	9066,	14.22,	11.64,	13.17,	13.96,	11.81,	14.56,	1.29,	12.25,	9.10,	11.51,	14.96,	12.65,	14.49,	10.59,	1695,	1681
51,	8182,	7833,	8065,	8468,	8998,	8568,	8594,	8343,	8372,	8284,	8825,	8873,	8428,	9073,	14.22,	11.64,	13.17,	13.96,	11.81,	14.56,	1.29,	12.25,	9.10,	11.51,	14.96,	12.65,	14.49,	10.59,	1696,	1682
52,	8195,	7837,	8088,	8491,	9016,	8579,	8617,	8346,	8368,	8290,	8818,	8882,	8422,	9076,	14.22,	11.64,	13.17,	13.96,	11.81,	14.56,	1.29,	12.25,	9.10,	11.51,	14.96,	12.65,	14.49,	10.59,	1695,	1682
53,	8227,	7868,	8138,	8521,	9030,	8604,	8660,	8380,	8385,	8313,	8848,	8914,	8449,	9102,	14.22,	11.64,	13.17,	13.96,	11.81,	14.56,	1.29,	12.25,	9.10,	11.51,	14.96,	12.65,	14.49,	10.59,	1696,	1682
54,	8240,	7885,	8154,	8529,	9028,	8613,	8662,	8399,	8394,	8328,	8861,	8926,	8462,	9116,	14.22,	11.64,	13.17,	13.96,	11.81,	14.56,	1.29,	12.25,	9.10,	11.51,	14.96,	12.65,	14.49,	10.59,	1696,	1682
55,	8222,	7855,	8131,	8507,	9009,	8603,	8636,	8372,	8379,	8310,	8844,	8904,	8438,	9097,	14.22,	11.64,	13.17,	13.96,	11.81,	14.56,	1.29,	12.25,	9.10,	11.51,	14.96,	12.65,	14.49,	10.59,	1695,	1683
56,	8203,	7831,	8115,	8488,	8999,	8596,	8632,	8341,	8351,	8278,	8841,	8890,	8425,	9085,	14.22,	11.64,	13.17,	13.96,	11.81,	14.56,	1.29,	12.25,	9.10,	11.51,	14.96,	12.65,	14.49,	10.59,	1696,	1681
57,	8207,	7849,	8127,	8501,	9000,	8585,	8627,	8346,	8338,	8283,	8852,	8906,	8446,	9103,	14.22,	11.64,	13.17,	13.96,	11.81,	14.56,	1.29,	12.25,	9.10,	11.51,	14.96,	12.65,	14.49,	10.59,	1696,	1683
58,	8232,	7868,	8146,	8521,	9010,	8581,	8615,	8372,	8352,	8321,	8860,	8928,	8469,	9119,	14.22,	11.64,	13.17,	13.96,	11.81,	14.56,	1.29,	12.25,	9.10,	11.51,	14.96,	12.65,	14.49,	10.59,	1697,	1683
59,	8237,	7858,	8145,	8516,	9015,	8595,	8616,	8389,	8367,	8326,	8856,	8923,	8464,	9106,	14.22,	11.64,	13.17,	13.96,	11.81,	14.56,	1.29,	12.25,	9.10,	11.51,	14.96,	12.65,	14.49,	10.59,	1695,	1684
60,	8212,	7848,	8128,	8505,	9002,	8586,	8586,	8398,	8369,	8307,	8847,	8908,	8448,	9095,	14.22,	11.64,	13.17,	13.96,	11.81,	14.56,	1.29,	12.25,	9.10,	11.51,	14.96,	12.65,	14.49,	10.59,	1696,	1684
61,	8205,	7853,	8122,	8513,	8999,	8574,	8575,	8406,	8371,	8311,	8852,	8908,	8450,	9101,	14.22,	11.64,	13.17,	13.96,	11.81,	14.56,	1.29,	12.25,	9.10,	11.51,	14.96,	12.65,	14.49,	10.59,	1696,	1684
62,	8232,	7865,	8140,	8527,	9028,	8625,	8668,	8406,	8374,	8325,	8861,	8919,	8462,	9112,	14.22,	11.64,	13.17,	13.96,	11.81,	14.56,	1.29,	12.25,	9.10,	11.51,	14.96,	12.65,	14.49,	10.59,	1696,	1685
63,	8234,	7865,	8142,	8522,	9039,	8650,	8705,	8395,	8362,	8323,	8843,	8912,	8454,	9104,	14.22,	11.64,	13.17,	13.96,	11.81,	14.56,	1.29,	12.25,	9.10,	11.51,	14.96,	12.65,	14.49,	10.59,	1697,	1686
64,	8194,	7843,	8110,	8502,	9009,	8582,	8598,	8381,	8340,	8302,	8810,	8880,	8421,	9071,	14.25,	11.64,	13.17,	13.96,	11.81,	14.56,	1.29,	12.25,	9.10,	11.51,	14.96,	12.65,	14.49,	10.59,	1696,	1686
65,	8170,	7823,	8089,	8486,	8978,	8549,	8555,	8359,	8313,	8259,	8783,	8846,	8383,	9043,	14.25,	11.66,	13.17,	13.96,	11.81,	14.56,	1.29,	12.25,	9.10,	11.51,	14.96,	12.65,	14.49,	10.59,	1696,	1686
66,	8150,	7796,	8067,	8453,	8948,	8576,	8600,	8330,	8280,	8206,	8740,	8806,	8343,	9019,	14.25,	11.66,	13.16,	13.96,	11.81,	14.56,	1.29,	12.25,	9.10,	11.51,	14.96,	12.65,	14.49,	10.59,	1696,	1688
67,	8105,	7748,	8016,	8397,	8919,	8561,	8582,	8318,	8257,	8169,	8687,	8765,	8305,	8983,	14.25,	11.66,	13.16,	13.96,	11.81,	14.56,	1.29,	12.25,	9.10,	11.51,	14.96,	12.65,	14.49,	10.59,	1697,	1687
68,	8089,	7730,	8000,	8375,	8921,	8549,	8565,	8336,	8267,	8172,	8682,	8762,	8301,	8977,	14.25,	11.66,	13.16,	13.96,	11.81,	14.56,	1.29,	12.25,	9.10,	11.51,	14.96,	12.65,	14.49,	10.59,	1695,	1689
69,	8151,	7778,	8055,	8419,	8955,	8582,	8600,	8377,	8313,	8227,	8748,	8817,	8360,	9037,	14.25,	11.66,	13.16,	13.96,	11.81,	14.52,	1.29,	12.25,	9.10,	11.51,	14.96,	12.65,	14.49,	10.59,	1697,	1688
70,	8220,	7832,	8118,	8474,	8984,	8596,	8610,	8400,	8354,	8298,	8828,	8884,	8440,	9107,	14.25,	11.66,	13.16,	13.96,	11.81,	14.52,	1.27,	12.25,	9.10,	11.51,	14.96,	12.65,	14.49,	10.59,	1695,	1687
71,	8246,	7854,	8148,	8500,	8999,	8596,	8625,	8405,	8374,	8344,	8876,	8929,	8487,	9136,	14.25,	11.66,	13.16,	13.96,	11.81,	14.52,	1.27,	12.22,	9.10,	11.51,	14.96,	12.65,	14.49,	10.59,	1696,	1688
72,	8254,	7862,	8162,	8512,	9007,	8607,	8650,	8418,	8379,	8352,	8892,	8943,	8494,	9139,	14.25,	11.66,	13.16,	13.96,	11.81,	14.52,	1.27,	12.22,	9.10,	11.51,	14.96,	12.65,	14.49,	10.59,	1695,	1687
73,	8245,	7858,	8161,	8509,	9003,	8599,	8624,	8413,	8367,	8333,	8881,	8931,	8480,	9123,	14.25,	11.66,	13.16,	13.96,	11.81,	14.52,	1.27,	12.22,	9.10,	11.50,	14.96,	12.65,	14.49,	10.59,	1695,	1689
74,	8229,	7856,	8149,	8502,	9001,	8588,	8600,	8381,	8347,	8320,	8863,	8924,	8470,	9114,	14.25,	11.66,	13.16,	13.96,	11.81,	14.52,	1.27,	12.22,	9.10,	11.50,	14.93,	12.65,	14.49,	10.59,	1696,	1687
75,	8230,	7860,	8151,	8509,	9001,	8600,	8620,	8365,	8326,	8310,	8857,	8932,	8470,	9123,	14.25,	11.66,	13.16,	13.96,	11.81,	14.52,	1.27,	12.22,	9.10,	11.50,	14.93,	12.62,	14.49,	10.59,	1695,	1688
76,	8232,	7854,	8156,	8508,	8997,	8598,	8619,	8371,	8313,	8295,	8858,	8928,	8471,	9120,	14.25,	11.66,	13.16,	13.96,	11.81,	14.52,	1.27,	12.22,	9.10,	11.50,	14.93,	12.62,	14.50,	10.59,	1696,	1686
77,	8230,	7848,	8153,	8498,	9001,	8585,	8600,	8377,	8323,	8300,	8856,	8924,	8472,	9117,	14.25,	11.66,	13.16,	13.96,	11.81,	14.52,	1.27,	12.22,	9.10,	11.50,	14.93,	12.62,	14.50,	10.55,	1696,	1686
78,	8233,	7845,	8150,	8497,	9003,	8591,	8611,	8384,	8343,	8322,	8853,	8925,	8468,	9121,	14.25,	11.66,	13.16,	13.96,	11.81,	14.52,	1.27,	12.22,	9.10,	11.50,	14.98,	12.62,	14.50,	10.55,	1696,	1686
79,	8233,	7841,	8151,	8498,	8998,	8610,	8643,	8398,	8346,	8323,	8853,	8916,	8461,	9119,	14.25,	11.66,	13.16,	13.96,	11.81,	14.52,	1.27,	12.22,	9.10,	11.50,	14.98,	12.67,	14.50,	10.55,	1695,	1687
80,	8232,	7845,	8154,	8487,	9001,	8614,	8645,	8402,	8340,	8311,	8847,	8909,	8452,	9115,	14.25,	11.66,	13.16,	13.96,	11.81,	14.52,	1.27,	12.22,	9.10,	11.50,	14.98,	12.67,	14.47,	10.55,	1696,	1688
81,	8222,	7836,	8141,	8471,	9003,	8591,	8602,	8393,	8343,	8311,	8833,	8902,	8442,	9101,	14.25,	11.66,	13.16,	13.96,	11.81,	14.52,	1.27,	12.22,	9.10,	11.50,	14.98,	12.67,	14.47,	10.58,	1695,	1690
82,	8189,	7814,	8120,	8463,	8990,	8578,	8578,	8378,	8339,	8312,	8822,	8878,	8435,	9084,	14.25,	11.66,	13.16,	13.96,	11.81,	14.52,	1.27,	12.22,	9.10,	11.50,	14.96,	12.67,	14.47,	10.58,	1696,	1693
83,	8181,	7821,	8130,	8475,	8988,	8596,	8617,	8371,	8329,	8307,	8819,	8860,	8431,	9083,	14.25,	11.66,	13.16,	13.96,	11.81,	14.52,	1.27,	12.22,	9.10,	11.50,	14.96,	12.64,	14.47,	10.58,	1696,	1692
84,	8207,	7836,	8148,	8475,	8996,	8608,	8636,	8372,	8318,	8309,	8820,	8865,	8433,	9090,	14.25,	11.66,	13.16,	13.96,	11.81,	14.52,	1.27,	12.22,	9.10,	11.50,	14.96,	12.64,	14.46,	10.58,	1696,	1693
85,	8211,	7827,	8148,	8462,	8999,	8594,	8601,	8372,	8318,	8319,	8820,	8871,	8436,	9091,	14.25,	11.66,	13.16,	13.96,	11.81,	14.52,	1.27,	12.22,	9.10,	11.50,	14.96,	12.64,	14.46,	10.56,	1698,	1692
86,	8199,	7833,	8150,	8481,	8998,	8591,	8591,	8374,	8326,	8314,	8816,	8870,	8427,	9092,	14.25,	11.66,	13.16,	13.96,	11.81,	14.52,	1.27,	12.22,	9.10,	11.50,	14.98,	12.64,	14.46,	10.56,	1698,	1692
87,	8191,	7843,	8151,	8503,	8987,	8584,	8587,	8354,	8308,	8283,	8793,	8861,	8402,	9074,	14.25,	11.66,	13.16,	13.96,	11.81,	14.52,	1.27,	12.22,	9.10,	11.50,	14.98,	12.67,	14.46,	10.56,	1698,	1691
88,	8180,	7830,	8146,	8495,	8979,	8568,	8560,	8319,	8279,	8266,	8778,	8845,	8390,	9056,	14.25,	11.66,	13.16,	13.96,	11.81,	14.52,	1.27,	12.22,	9.10,	11.50,	14.98,	12.67,	14.46,	10.56,	1698,	1692
89,	8183,	7828,	8148,	8491,	8989,	8578,	8573,	8320,	8278,	8281,	8788,	8846,	8401,	9061,	14.25,	11.66,	13.16,	13.96,	11.81,	14.52,	1.27,	12.22,	9.10,	11.50,	14.98,	12.67,	14.46,	10.56,	1698,	1691
90,	8197,	7836,	8158,	8490,	8987,	8587,	8606,	8341,	8288,	8284,	8793,	8858,	8405,	9069,	14.25,	11.66,	13.16,	13.96,	11.81,	14.52,	1.27,	12.22,	9.10,	11.50,	14.96,	12.67,	14.46,	10.56,	1697,	1691
91,	8206,	7835,	8164,	8481,	8972,	8591,	8620,	8351,	8288,	8279,	8795,	8861,	8410,	9078,	14.25,	11.66,	13.16,	13.96,	11.81,	14.52,	1.27,	12.22,	9.10,	11.50,	14.96,	12.62,	14.46,	10.56,	1697,	1689
92,	8190,	7824,	8152,	8469,	8968,	8586,	8605,	8345,	8274,	8281,	8789,	8850,	8404,	9073,	14.25,	11.66,	13.16,	13.96,	11.81,	14.52,	1.27,	12.22,	9.10,	11.50,	14.96,	12.62,	14.47,	10.56,	1697,	1689
93,	8157,	7809,	8128,	8452,	8968,	8571,	8582,	8323,	8251,	8263,	8761,	8831,	8374,	9043,	14.25,	11.66,	13.16,	13.96,	11.81,	14.52,	1.27,	12.22,	9.10,	11.50,	14.96,	12.62,	14.47,	10.58,	1697,	1688
94,	8141,	7800,	8111,	8442,	8966,	8572,	8588,	8326,	8246,	8247,	8746,	8819,	8362,	9025,	14.25,	11.66,	13.16,	13.96,	11.81,	14.52,	1.27,	12.22,	9.10,	11.50,	14.93,	12.62,	14.47,	10.58,	1696,	1689
95,	8148,	7804,	8122,	8449,	8958,	8575,	8591,	8361,	8262,	8255,	8758,	8825,	8373,	9036,	14.25,	11.66,	13.16,	13.96,	11.81,	14.52,	1.27,	12.22,	9.10,	11.50,	14.93,	12.67,	14.47,	10.58,	1696,	1688
96,	8149,	7802,	8139,	8448,	8945,	8543,	8545,	8352,	8259,	8255,	8756,	8833,	8373,	9046,	14.25,	11.66,	13.16,	13.96,	11.81,	14.52,	1.27,	12.22,	9.10,	11.50,	14.93,	12.67,	14.47,	10.58,	1696,	1688
97,	8153,	7800,	8142,	8442,	8949,	8539,	8548,	8318,	8244,	8257,	8761,	8836,	8375,	9052,	14.25,	11.66,	13.16,	13.96,	11.81,	14.52,	1.27,	12.22,	9.10,	11.50,	14.93,	12.67,	14.47,	10.55,	1697,	1687
98,	8180,	7816,	8160,	8457,	8969,	8587,	8617,	8339,	8254,	8273,	8785,	8847,	8393,	9066,	14.25,	11.66,	13.16,	13.96,	11.81,	14.52,	1.27,	12.22,	9.10,	11.50,	14.95,	12.67,	14.47,	10.55,	1696,	1688
99,	8208,	7839,	8189,	8482,	8982,	8610,	8649,	8390,	8287,	8284,	8795,	8868,	8410,	9079,	14.25,	11.66,	13.16,	13.96,	11.81,	14.52,	1.27,	12.22,	9.10,	11.50,	14.95,	12.64,	14.47,	10.55,	1697,	1686
100,	8214,	7853,	8206,	8495,	8990,	8609,	8664,	8427,	8315,	8303,	8806,	8886,	8426,	9090,	14.25,	11.66,	13.16,	13.96,	11.81,	14.52,	1.27,	12.22,	9.10,	11.50,	14.95,	12.64,	14.46,	10.55,	1696,	1686
101,	8203,	7849,	8200,	8487,	8998,	8612,	8675,	8433,	8319,	8306,	8821,	8877,	8426,	9087,	14.25,	11.66,	13.16,	13.96,	11.81,	14.52,	1.27,	12.22,	9.10,	11.50,	14.95,	12.64,	14.46,	10.59,	1696,	1687
102,	8200,	7842,	8194,	8478,	8993,	8599,	8637,	8415,	8315,	8304,	8823,	8865,	8422,	9080,	14.25,	11.66,	13.16,	13.96,	11.81,	14.52,	1.27,	12.22,	9.10,	11.50,	14.95,	12.64,	14.46,	10.59,	1696,	1685
103,	8210,	7846,	8206,	8486,	8982,	8584,	8598,	8401,	8321,	8337,	8819,	8885,	8436,	9097,	14.25,	11.66,	13.16,	13.96,	11.81,	14.52,	1.27,	12.22,	9.10,	11.50,	14.95,	12.65,	14.46,	10.59,	1696,	1687
104,	8208,	7846,	8212,	8488,	8981,	8588,	8613,	8395,	8328,	8348,	8825,	8898,	8443,	9103,	14.25,	11.66,	13.16,	13.96,	11.81,	14.52,	1.27,	12.22,	9.10,	11.50,	14.95,	12.65,	14.47,	10.59,	1696,	1686
105,	8203,	7843,	8201,	8487,	8987,	8590,	8619,	8383,	8323,	8317,	8838,	8891,	8442,	9090,	14.25,	11.66,	13.16,	13.96,	11.81,	14.52,	1.27,	12.22,	9.10,	11.50,	14.95,	12.65,	14.47,	10.59,	1696,	1685
106,	8204,	7846,	8202,	8494,	8984,	8581,	8586,	8373,	8314,	8312,	8845,	8892,	8448,	9093,	14.25,	11.66,	13.16,	13.96,	11.81,	14.52,	1.27,	12.22,	9.10,	11.50,	14.96,	12.65,	14.47,	10.59,	1696,	1685
107,	8211,	7853,	8218,	8502,	8993,	8598,	8616,	8399,	8329,	8341,	8850,	8901,	8456,	9110,	14.25,	11.66,	13.16,	13.96,	11.81,	14.52,	1.27,	12.22,	9.10,	11.50,	14.96,	12.62,	14.47,	10.59,	1696,	1685
108,	8230,	7863,	8229,	8511,	9015,	8629,	8684,	8427,	8350,	8352,	8849,	8900,	8459,	9120,	14.25,	11.66,	13.16,	13.96,	11.81,	14.52,	1.27,	12.22,	9.10,	11.50,	14.96,	12.62,	14.46,	10.59,	1697,	1685
109,	8228,	7854,	8217,	8497,	8995,	8598,	8637,	8387,	8326,	8326,	8820,	8883,	8439,	9102,	14.25,	11.66,	13.16,	13.96,	11.81,	14.52,	1.27,	12.22,	9.10,	11.50,	14.96,	12.62,	14.46,	10.56,	1696,	1686
110,	8201,	7834,	8197,	8472,	8959,	8547,	8546,	8330,	8286,	8286,	8792,	8867,	8410,	9079,	14.25,	11.66,	13.16,	13.96,	11.81,	14.52,	1.27,	12.22,	9.10,	11.50,	14.96,	12.62,	14.46,	10.56,	1697,	1685
111,	8208,	7839,	8197,	8484,	8973,	8574,	8588,	8355,	8296,	8288,	8810,	8880,	8416,	9094,	14.25,	11.66,	13.16,	13.96,	11.81,	14.52,	1.27,	12.22,	9.10,	11.50,	14.96,	12.62,	14.46,	10.56,	1695,	1684
112,	8235,	7856,	8208,	8506,	9000,	8614,	8650,	8396,	8321,	8313,	8832,	8898,	8443,	9115,	14.25,	11.66,	13.16,	13.96,	11.81,	14.52,	1.27,	12.22,	9.10,	11.50,	14.96,	12.62,	14.49,	10.56,	1695,	1685
113,	8242,	7866,	8221,	8510,	8997,	8606,	8635,	8389,	8315,	8313,	8824,	8900,	8451,	9117,	14.25,	11.66,	13.16,	13.96,	11.81,	14.52,	1.27,	12.22,	9.10,	11.50,	14.96,	12.62,	14.49,	10.59,	1696,	1683
114,	8242,	7867,	8228,	8513,	9000,	8615,	8653,	8402,	8312,	8312,	8825,	8899,	8446,	9122,	14.25,	11.66,	13.16,	13.96,	11.81,	14.52,	1.27,	12.22,	9.10,	11.50,	14.95,	12.62,	14.49,	10.59,	1695,	1684
115,	8240,	7854,	8210,	8506,	9000,	8631,	8672,	8412,	8318,	8303,	8826,	8892,	8437,	9119,	14.25,	11.66,	13.16,	13.96,	11.81,	14.52,	1.27,	12.22,	9.10,	11.50,	14.95,	12.62,	14.49,	10.59,	1696,	1684
116,	8227,	7845,	8192,	8490,	8977,	8602,	8606,	8369,	8310,	8288,	8815,	8884,	8429,	9107,	14.25,	11.66,	13.16,	13.96,	11.81,	14.52,	1.27,	12.22,	9.10,	11.50,	14.95,	12.62,	14.49,	10.59,	1694,	1685
117,	8225,	7849,	8187,	8494,	8970,	8574,	8564,	8349,	8305,	8303,	8819,	8886,	8436,	9104,	14.25,	11.66,	13.16,	13.96,	11.81,	14.52,	1.27,	12.22,	9.10,	11.50,	14.95,	12.62,	14.49,	10.55,	1695,	1685
118,	8231,	7849,	8182,	8501,	8983,	8582,	8599,	8375,	8314,	8320,	8824,	8887,	8439,	9108,	14.25,	11.66,	13.16,	13.96,	11.81,	14.52,	1.27,	12.22,	9.10,	11.50,	14.98,	12.62,	14.49,	10.55,	1696,	1686
119,	8232,	7845,	8182,	8496,	8980,	8588,	8601,	8374,	8311,	8300,	8809,	8882,	8424,	9108,	14.25,	11.66,	13.16,	13.96,	11.81,	14.52,	1.27,	12.22,	9.10,	11.50,	14.98,	12.64,	14.49,	10.55,	1696,	1685
120,	8239,	7853,	8193,	8505,	8981,	8603,	8608,	8355,	8306,	8283,	8801,	8887,	8416,	9113,	14.25,	11.66,	13.16,	13.96,	11.81,	14.52,	1.27,	12.22,	9.10,	11.50,	14.98,	12.64,	14.46,	10.55,	1695,	1686
121,	8242,	7856,	8194,	8513,	8995,	8619,	8644,	8354,	8307,	8284,	8804,	8889,	8417,	9118,	14.25,	11.66,	13.16,	13.96,	11.81,	14.52,	1.27,	12.22,	9.10,	11.50,	14.98,	12.64,	14.46,	10.55,	1696,	1685
122,	8231,	7842,	8183,	8501,	8987,	8604,	8626,	8351,	8302,	8290,	8815,	8882,	8424,	9110,	14.25,	11.66,	13.16,	13.96,	11.81,	14.52,	1.27,	12.22,	9.10,	11.50,	14.96,	12.64,	14.46,	10.55,	1696,	1684
123,	8224,	7835,	8177,	8493,	8971,	8592,	8598,	8352,	8299,	8292,	8819,	8887,	8431,	9103,	14.25,	11.66,	13.16,	13.96,	11.81,	14.52,	1.27,	12.22,	9.10,	11.50,	14.96,	12.65,	14.46,	10.55,	1697,	1686
124,	8222,	7839,	8176,	8488,	8970,	8596,	8612,	8359,	8308,	8286,	8791,	8882,	8418,	9103,	14.25,	11.66,	13.16,	13.96,	11.81,	14.52,	1.27,	12.22,	9.10,	11.50,	14.96,	12.65,	14.46,	10.55,	1697,	1684
125,	8216,	7835,	8178,	8484,	8973,	8569,	8597,	8357,	8317,	8300,	8792,	8873,	8419,	9110,	14.25,	11.66,	13.16,	13.96,	11.81,	14.52,	1.27,	12.22,	9.10,	11.50,	14.96,	12.65,	14.46,	10.56,	1695,	1686
126,	8211,	7825,	8182,	8477,	8963,	8515,	8542,	8336,	8305,	8306,	8838,	8886,	8437,	9109,	14.25,	11.66,	13.16,	13.96,	11.81,	14.52,	1.27,	12.22,	9.10,	11.50,	14.96,	12.65,	14.46,	10.56,	1697,	1686
127,	8221,	7830,	8182,	8479,	8961,	8511,	8572,	8330,	8297,	8298,	8868,	8906,	8448,	9109,	14.25,	11.66,	13.16,	13.96,	11.81,	14.52,	1.27,	12.22,	9.10,	11.50,	14.96,	12.62,	14.46,	10.56,	1696,	1686
0,	8264,	7870,	8219,	8529,	9007,	8569,	8668,	8394,	8342,	8366,	8899,	8927,	8482,	9152,	14.22,	11.66,	13.16,	13.96,	11.81,	14.52,	1.27,	12.22,	9.10,	11.50,	14.96,	12.62,	14.46,	10.56,	1697,	1685
1,	8228,	7845,	8191,	8498,	8983,	8527,	8597,	8349,	8313,	8322,	8867,	8901,	8440,	9112,	14.22,	11.63,	13.16,	13.96,	11.81,	14.52,	1.27,	12.22,	9.10,	11.50,	14.96,	12.62,	14.46,	10.56,	1698,	1685
2,	8211,	7825,	8170,	8471,	8965,	8520,	8583,	8342,	8296,	8284,	8831,	8878,	8412,	9092,	14.22,	11.63,	13.20,	13.96,	11.81,	14.52,	1.27,	12.22,	9.10,	11.50,	14.96,	12.62,	14.46,	10.56,	1697,	1683
3,	8222,	7833,	8183,	8486,	8972,	8536,	8618,	8390,	8324,	8315,	8853,	8890,	8442,	9110,	14.22,	11.63,	13.20,	13.90,	11.81,	14.52,	1.27,	12.22,	9.10,	11.50,	14.96,	12.62,	14.46,	10.56,	1698,	1684
4,	8208,	7825,	8181,	8493,	8969,	8511,	8592,	8363,	8320,	8318,	8864,	8883,	8438,	9104,	14.22,	11.63,	13.20,	13.90,	11.79,	14.52,	1.27,	12.22,	9.10,	11.50,	14.96,	12.62,	14.46,	10.56,	1697,	1683
5,	8194,	7809,	8161,	8474,	8963,	8486,	8546,	8300,	8284,	8284,	8834,	8859,	8402,	9076,	14.22,	11.63,	13.20,	13.90,	11.79,	14.55,	1.27,	12.22,	9.10,	11.50,	14.96,	12.62,	14.46,	10.56,	1698,	1685
6,	8204,	7813,	8158,	8469,	8965,	8491,	8551,	8319,	8279,	8274,	8818,	8859,	8401,	9072,	14.22,	11.63,	13.20,	13.90,	11.79,	14.55,	1.29,	12.22,	9.10,	11.50,	14.96,	12.62,	14.46,	10.56,	1698,	1684
7,	8205,	7817,	8170,	8481,	8964,	8504,	8586,	8353,	8291,	8282,	8833,	8871,	8412,	9088,	14.22,	11.63,	13.20,	13.90,	11.79,	14.55,	1.29,	12.24,	9.10,	11.50,	14.96,	12.62,	14.46,	10.56,	1696,	1686
8,	8202,	7815,	8173,	8485,	8967,	8519,	8621,	8346,	8293,	8288,	8851,	8878,	8409,	9096,	14.22,	11.63,	13.20,	13.90,	11.79,	14.55,	1.29,	12.24,	9.08,	11.50,	14.96,	12.62,	14.46,	10.56,	1698,	1684
9,	8205,	7817,	8163,	8479,	8973,	8519,	8625,	8341,	8288,	8285,	8850,	8872,	8410,	9094,	14.22,	11.63,	13.20,	13.90,	11.79,	14.55,	1.29,	12.24,	9.08,	11.51,	14.96,	12.62,	14.46,	10.56,	1696,	1684
10,	8212,	7822,	8171,	8478,	8964,	8508,	8607,	8349,	8288,	8279,	8849,	8879,	8424,	9104,	14.22,	11.63,	13.20,	13.90,	11.79,	14.55,	1.29,	12.24,	9.08,	11.51,	14.98,	12.62,	14.46,	10.56,	1697,	1685
11,	8217,	7821,	8183,	8478,	8946,	8510,	8602,	8356,	8289,	8286,	8852,	8891,	8423,	9109,	14.22,	11.63,	13.20,	13.90,	11.79,	14.55,	1.29,	12.24,	9.08,	11.51,	14.98,	12.65,	14.46,	10.56,	1697,	1683
12,	8207,	7813,	8169,	8473,	8940,	8511,	8607,	8363,	8290,	8303,	8848,	8880,	8407,	9100,	14.22,	11.63,	13.20,	13.90,	11.79,	14.55,	1.29,	12.24,	9.08,	11.51,	14.98,	12.65,	14.50,	10.56,	1696,	1684
13,	8199,	7806,	8162,	8473,	8955,	8502,	8613,	8374,	8293,	8309,	8847,	8872,	8413,	9104,	14.22,	11.63,	13.20,	13.90,	11.79,	14.55,	1.29,	12.24,	9.08,	11.51,	14.98,	12.65,	14.50,	10.56,	1697,	1684
14,	8213,	7810,	8176,	8484,	8972,	8503,	8599,	8383,	8294,	8311,	8860,	8886,	8433,	9112,	14.22,	11.63,	13.20,	13.90,	11.79,	14.55,	1.29,	12.24,	9.08,	11.51,	14.98,	12.65,	14.50,	10.56,	1697,	1684
15,	8222,	7817,	8184,	8491,	8976,	8503,	8567,	8367,	8289,	8310,	8873,	8896,	8437,	9113,	14.22,	11.63,	13.20,	13.90,	11.79,	14.55,	1.29,	12.24,	9.08,	11.51,	14.98,	12.67,	14.50,	10.56,	1697,	1684
16,	8216,	7819,	8190,	8491,	8968,	8495,	8567,	8338,	8291,	8310,	8885,	8894,	8444,	9117,	14.22,	11.63,	13.20,	13.90,	11.79,	14.55,	1.29,	12.24,	9.08,	11.51,	14.98,	12.67,	14.50,	10.56,	1696,	1685
17,	8227,	7832,	8208,	8509,	8973,	8505,	8607,	8343,	8316,	8327,	8898,	8906,	8465,	9130,	14.22,	11.63,	13.20,	13.90,	11.79,	14.55,	1.29,	12.24,	9.08,	11.51,	14.98,	12.67,	14.50,	10.56,	1697,	1685
18,	8238,	7844,	8212,	8525,	8990,	8524,	8615,	8356,	8318,	8325,	8896,	8905,	8462,	9130,	14.22,	11.63,	13.20,	13.90,	11.79,	14.55,	1.29,	12.24,	9.08,	11.51,	14.98,	12.67,	14.50,	10.56,	1697,	1685
19,	8214,	7823,	8187,	8503,	8980,	8501,	8565,	8326,	8286,	8291,	8878,	8881,	8435,	9107,	14.22,	11.63,	13.20,	13.90,	11.79,	14.55,	1.29,	12.24,	9.08,	11.51,	14.98,	12.67,	14.50,	10.56,	1697,	1685
20,	8196,	7808,	8179,	8491,	8962,	8482,	8546,	8297,	8276,	8286,	8872,	8882,	8430,	9101,	14.22,	11.63,	13.20,	13.90,	11.79,	14.55,	1.29,	12.24,	9.08,	11.51,	14.98,	12.67,	14.50,	10.56,	1697,	1686
21,	8224,	7830,	8202,	8515,	8980,	8521,	8620,	8316,	8292,	8317,	8887,	8901,	8446,	9116,	14.22,	11.63,	13.20,	13.90,	11.79,	14.55,	1.29,	12.24,	9.08,	11.51,	14.98,	12.67,	14.50,	10.56,	1698,	1686
22,	8249,	7842,	8212,	8529,	8998,	8534,	8642,	8348,	8297,	8329,	8896,	8906,	8449,	9124,	14.22,	11.63,	13.20,	13.90,	11.79,	14.55,	1.29,	12.24,	9.08,	11.51,	14.98,	12.67,	14.50,	10.56,	1698,	1687
23,	8232,	7817,	8195,	8508,	8972,	8475,	8544,	8334,	8290,	8315,	8885,	8894,	8432,	9111,	14.22,	11.63,	13.20,	13.90,	11.79,	14.55,	1.29,	12.24,	9.08,	11.51,	14.98,	12.67,	14.50,	10.56,	1697,	1687
24,	8220,	7806,	8185,	8495,	8957,	8455,	8511,	8304,	8287,	8316,	8879,	8890,	8429,	9106,	14.22,	11.63,	13.20,	13.90,	11.79,	14.55,	1.29,	12.24,	9.08,	11.51,	14.98,	12.67,	14.50,	10.56,	1698,	1689
25,	8242,	7825,	8201,	8514,	8978,	8507,	8593,	8327,	8291,	8324,	8891,	8902,	8444,	9120,	14.22,	11.63,	13.20,	13.90,	11.79,	14.55,	1.29,	12.24,	9.08,	11.51,	14.98,	12.67,	14.50,	10.56,	1699,	1687
26,	8231,	7813,	8187,	8503,	8966,	8506,	8588,	8337,	8272,	8285,	8874,	8884,	8418,	9105,	14.22,	11.63,	13.20,	13.90,	11.79,	14.55,	1.29,	12.24,	9.08,	11.51,	14.98,	12.67,	14.50,	10.56,	1697,	1689
27,	8170,	7764,	8125,	8442,	8923,	8460,	8525,	8288,	8224,	8227,	8809,	8834,	8353,	9055,	14.22,	11.63,	13.20,	13.90,	11.79,	14.55,	1.29,	12.24,	9.08,	11.51,	14.98,	12.67,	14.50,	10.56,	1699,	1688
28,	8125,	7723,	8073,	8392,	8901,	8466,	8550,	8261,	8190,	8203,	8755,	8790,	8312,	9019,	14.22,	11.63,	13.20,	13.90,	11.79,	14.55,	1.29,	12.24,	9.08,	11.51,	14.98,	12.67,	14.50,	10.56,	1697,	1688
29,	8102,	7699,	8044,	8376,	8893,	8488,	8581,	8273,	8189,	8193,	8737,	8765,	8296,	9006,	14.22,	11.63,	13.20,	13.90,	11.79,	14.55,	1.29,	12.24,	9.08,	11.51,	14.98,	12.67,	14.50,	10.56,	1698,	1689
30,	8128,	7729,	8078,	8403,	8916,	8507,	8599,	8310,	8223,	8218,	8779,	8795,	8322,	9033,	14.22,	11.63,	13.20,	13.90,	11.79,	14.55,	1.29,	12.24,	9.08,	11.51,	14.98,	12.67,	14.50,	10.56,	1697,	1687
31,	8221,	7816,	8174,	8487,	8981,	8545,	8658,	8396,	8303,	8314,	8876,	8893,	8414,	9112,	14.22,	11.63,	13.20,	13.90,	11.79,	14.55,	1.29,	12.24,	9.08,	11.51,	14.98,	12.67,	14.50,	10.56,	1696,	1688
32,	8282,	7862,	8231,	8546,	9009,	8564,	8678,	8448,	8357,	8381,	8937,	8957,	8484,	9165,	14.22,	11.63,	13.20,	13.90,	11.79,	14.55,	1.29,	12.24,	9.08,	11.51,	14.98,	12.67,	14.50,	10.56,	1697,	1688
33,	8262,	7835,	8211,	8529,	8978,	8533,	8625,	8404,	8332,	8348,	8927,	8941,	8468,	9146,	14.22,	11.63,	13.20,	13.90,	11.79,	14.55,	1.29,	12.24,	9.08,	11.51,	14.98,	12.67,	14.50,	10.56,	1697,	1687
34,	8238,	7810,	8179,	8493,	8958,	8509,	8599,	8380,	8302,	8320,	8908,	8914,	8438,	9122,	14.22,	11.63,	13.20,	13.90,	11.79,	14.55,	1.29,	12.24,	9.08,	11.51,	14.98,	12.67,	14.50,	10.56,	1697,	1687
35,	8241,	7818,	8176,	8486,	8964,	8507,	8596,	8383,	8301,	8321,	8894,	8907,	8430,	9126,	14.22,	11.63,	13.20,	13.90,	11.79,	14.55,	1.29,	12.24,	9.08,	11.51,	14.98,	12.67,	14.50,	10.56,	1696,	1688
36,	8243,	7834,	8190,	8512,	8975,	8508,	8575,	8334,	8279,	8299,	8875,	8905,	8413,	9121,	14.22,	11.63,	13.20,	13.90,	11.79,	14.55,	1.29,	12.24,	9.08,	11.51,	14.98,	12.67,	14.50,	10.56,	1698,	1685
37,	8245,	7843,	8202,	8548,	8988,	8529,	8596,	8309,	8259,	8289,	8873,	8909,	8400,	9111,	14.22,	11.63,	13.20,	13.90,	11.79,	14.55,	1.29,	12.24,	9.08,	11.51,	14.98,	12.67,	14.50,	10.56,	1696,	1686
38,	8239,	7840,	8200,	8547,	8992,	8546,	8631,	8339,	8276,	8305,	8875,	8898,	8400,	9107,	14.22,	11.63,	13.20,	13.90,	11.79,	14.55,	1.29,	12.24,	9.08,	11.51,	14.98,	12.67,	14.50,	10.56,	1698,	1685
39,	8231,	7839,	8197,	8534,	8988,	8533,	8612,	8353,	8291,	8315,	8875,	8889,	8405,	9103,	14.22,	11.63,	13.20,	13.90,	11.79,	14.55,	1.29,	12.24,	9.08,	11.51,	14.98,	12.67,	14.50,	10.56,	1696,	1686
40,	8241,	7849,	8208,	8553,	8985,	8528,	8610,	8358,	8289,	8308,	8886,	8908,	8412,	9114,	14.22,	11.63,	13.20,	13.90,	11.79,	14.55,	1.29,	12.24,	9.08,	11.51,	14.98,	12.67,	14.50,	10.56,	1697,	1687
41,	8243,	7848,	8206,	8557,	8971,	8540,	8631,	8377,	8288,	8287,	8878,	8913,	8406,	9115,	14.22,	11.63,	13.20,	13.90,	11.79,	14.55,	1.29,	12.24,	9.08,	11.51,	14.98,	12.67,	14.50,	10.56,	1697,	1686
42,	8225,	7832,	8186,	8528,	8966,	8529,	8599,	8373,	8287,	8277,	8853,	8885,	8399,	9092,	14.22,	11.63,	13.20,	13.90,	11.79,	14.55,	1.29,	12.24,	9.08,	11.51,	14.98,	12.67,	14.50,	10.56,	1698,	1688
43,	8215,	7817,	8170,	8514,	8975,	8509,	8566,	8341,	8275,	8288,	8846,	8871,	8403,	9086,	14.22,	11.63,	13.20,	13.90,	11.79,	14.55,	1.29,	12.24,	9.08,	11.51,	14.98,	12.67,	14.50,	10.56,	1698,	1688
44,	8215,	7811,	8162,	8514,	8974,	8511,	8589,	8324,	8265,	8295,	8856,	8870,	8391,	9095,	14.22,	11.63,	13.20,	13.90,	11.79,	14.55,	1.29,	12.24,	9.08,	11.51,	14.98,	12.67,	14.50,	10.56,	1698,	1690
45,	8209,	7817,	8161,	8513,	8961,	8522,	8618,	8324,	8253,	8287,	8850,	8862,	8373,	9082,	14.22,	11.63,	13.20,	13.90,	11.79,	14.55,	1.29,	12.24,	9.08,	11.51,	14.98,	12.67,	14.50,	10.56,	1698,	1689
46,	8202,	7814,	8163,	8507,	8952,	8523,	8621,	8322,	8233,	8275,	8830,	8857,	8369,	9068,	14.22,	11.63,	13.20,	13.90,	11.79,	14.55,	1.29,	12.24,	9.08,	11.51,	14.98,	12.67,	14.50,	10.56,	1698,	1689
47,	8193,	7785,	8147,	8493,	8941,	8497,	8588,	8317,	8223,	8259,	8815,	8852,	8360,	9064,	14.22,	11.63,	13.20,	13.90,	11.79,	14.55,	1.29,	12.24,	9.08,	11.51,	14.98,	12.67,	14.50,	10.56,	1698,	1688
48,	8196,	7774,	8140,	8491,	8936,	8481,	8567,	8333,	8242,	8264,	8825,	8855,	8356,	9070,	14.22,	11.63,	13.20,	13.90,	11.79,	14.55,	1.29,	12.24,	9.08,	11.51,	14.98,	12.67,	14.50,	10.56,	1697,	1687
49,	8210,	7794,	8158,	8505,	8949,	8506,	8617,	8367,	8270,	8293,	8845,	8868,	8379,	9083,	14.22,	11.63,	13.20,	13.90,	11.79,	14.55,	1.29,	12.24,	9.08,	11.51,	14.98,	12.67,	14.50,	10.56,	1698,	1686
50,	8195,	7788,	8149,	8498,	8949,	8514,	8641,	8390,	8283,	8302,	8836,	8855,	8386,	9073,	14.22,	11.63,	13.20,	13.90,	11.79,	14.55,	1.29,	12.24,	9.08,	11.51,	14.98,	12.67,	14.50,	10.56,	1697,	1685
51,	8167,	7758,	8122,	8476,	8933,	8494,	8603,	8399,	8282,	8285,	8805,	8826,	8354,	9051,	14.22,	11.63,	13.20,	13.90,	11.79,	14.55,	1.29,	12.24,	9.08,	11.51,	14.98,	12.67,	14.50,	10.56,	1697,	1685
52,	8165,	7755,	8120,	8476,	8933,	8491,	8592,	8387,	8269,	8272,	8792,	8824,	8342,	9047,	14.22,	11.63,	13.20,	13.90,	11.79,	14.55,	1.29,	12.24,	9.08,	11.51,	14.98,	12.67,	14.50,	10.56,	1696,	1685
53,	8161,	7762,	8126,	8484,	8932,	8476,	8576,	8344,	8252,	8262,	8796,	8827,	8348,	9049,	14.22,	11.63,	13.20,	13.90,	11.79,	14.55,	1.29,	12.24,	9.08,	11.51,	14.98,	12.67,	14.50,	10.56,	1696,	1686
54,	8139,	7746,	8108,	8470,	8911,	8439,	8519,	8309,	8248,	8252,	8788,	8804,	8332,	9033,	14.22,	11.63,	13.20,	13.90,	11.79,	14.55,	1.29,	12.24,	9.08,	11.51,	14.98,	12.67,	14.50,	10.56,	1697,	1685
55,	8136,	7737,	8097,	8455,	8905,	8437,	8515,	8305,	8245,	8257,	8782,	8793,	8320,	9022,	14.22,	11.63,	13.20,	13.90,	11.79,	14.55,	1.29,	12.24,	9.08,	11.51,	14.98,	12.67,	14.50,	10.56,	1695,	1686
56,	8155,	7753,	8118,	8469,	8925,	8474,	8575,	8323,	8259,	8277,	8801,	8815,	8339,	9033,	14.22,	11.63,	13.20,	13.90,	11.79,	14.55,	1.29,	12.24,	9.08,	11.51,	14.98,	12.67,	14.50,	10.56,	1695,	1686
57,	8172,	7767,	8133,	8487,	8941,	8502,	8614,	8343,	8280,	8292,	8822,	8832,	8358,	9042,	14.22,	11.63,	13.20,	13.90,	11.79,	14.55,	1.29,	12.24,	9.08,	11.51,	14.98,	12.67,	14.50,	10.56,	1695,	1686
58,	8175,	7767,	8126,	8479,	8945,	8491,	8590,	8335,	8266,	8283,	8817,	8828,	8348,	9030,	14.22,	11.63,	13.20,	13.90,	11.79,	14.55,	1.29,	12.24,	9.08,	11.51,	14.98,	12.67,	14.50,	10.56,	1695,	1685
59,	8162,	7761,	8119,	8467,	8936,	8457,	8545,	8320,	8250,	8269,	8806,	8822,	8336,	9009,	14.22,	11.63,	13.20,	13.90,	11.79,	14.55,	1.29,	12.24,	9.08,	11.51,	14.98,	12.67,	14.50,	10.56,	1694,	1685
60,	8172,	7770,	8142,	8489,	8938,	8463,	8565,	8352,	8280,	8296,	8833,	8848,	8366,	9019,	14.22,	11.63,	13.20,	13.90,	11.79,	14.55,	1.29,	12.24,	9.08,	11.51,	14.98,	12.67,	14.50,	10.56,	1696,	1686
61,	8209,	7796,	8174,	8521,	8955,	8500,	8624,	8385,	8304,	8335,	8870,	8887,	8407,	9054,	14.22,	11.63,	13.20,	13.90,	11.79,	14.55,	1.29,	12.24,	9.08,	11.51,	14.98,	12.67,	14.50,	10.56,	1694,	1686
62,	8203,	7798,	8162,	8511,	8944,	8483,	8608,	8356,	8284,	8319,	8860,	8876,	8397,	9047,	14.22,	11.63,	13.20,	13.90,	11.79,	14.55,	1.29,	12.24,	9.08,	11.51,	14.98,	12.67,	14.50,	10.56,	1695,	1687
63,	8177,	7780,	8137,	8486,	8936,	8455,	8578,	8327,	8268,	8287,	8831,	8844,	8360,	9020,	14.22,	11.63,	13.20,	13.90,	11.79,	14.55,	1.29,	12.24,	9.08,	11.51,	14.98,	12.67,	14.50,	10.56,	1695,	1686
64,	8218,	7804,	8174,	8516,	8972,	8507,	8655,	8368,	8300,	8318,	8866,	8878,	8387,	9048,	14.27,	11.63,	13.20,	13.90,	11.79,	14.55,	1.29,	12.24,	9.08,	11.51,	14.98,	12.67,	14.50,	10.56,	1695,	1687
65,	8276,	7845,	8222,	8564,	8995,	8562,	8722,	8421,	8345,	8365,	8920,	8936,	8445,	9104,	14.27,	11.64,	13.20,	13.90,	11.79,	14.55,	1.29,	12.24,	9.08,	11.51,	14.98,	12.67,	14.50,	10.56,	1696,	1685
66,	8260,	7840,	8212,	8554,	8978,	8524,	8662,	8416,	8344,	8358,	8907,	8927,	8442,	9105,	14.27,	11.64,	13.19,	13.90,	11.79,	14.55,	1.29,	12.24,	9.08,	11.51,	14.98,	12.67,	14.50,	10.56,	1695,	1686
67,	8223,	7813,	8184,	8523,	8966,	8474,	8598,	8381,	8311,	8324,	8873,	8894,	8403,	9070,	14.27,	11.64,	13.19,	13.90,	11.79,	14.55,	1.29,	12.24,	9.08,	11.51,	14.98,	12.67,	14.50,	10.56,	1696,	1686
68,	8230,	7814,	8195,	8533,	8970,	8488,	8618,	8375,	8310,	8325,	8878,	8911,	8402,	9070,	14.27,	11.64,	13.19,	13.90,	11.82,	14.55,	1.29,	12.24,	9.08,	11.51,	14.98,	12.67,	14.50,	10.56,	1696,	1685
69,	8247,	7823,	8214,	8546,	8975,	8502,	8624,	8387,	8328,	8341,	8892,	8930,	8427,	9086,	14.27,	11.64,	13.19,	13.90,	11.82,	14.52,	1.29,	12.24,	9.08,	11.51,	14.98,	12.67,	14.50,	10.56,	1697,	1685
70,	8237,	7810,	8198,	8530,	8973,	8475,	8579,	8359,	8303,	8326,	8882,	8907,	8408,	9070,	14.27,	11.64,	13.19,	13.90,	11.82,	14.52,	1.29,	12.24,	9.08,	11.51,	14.98,	12.67,	14.50,	10.56,	1697,	1686
71,	8225,	7802,	8184,	8525,	8969,	8464,	8573,	8323,	8279,	8301,	8872,	8888,	8376,	9052,	14.27,	11.64,	13.19,	13.90,	11.82,	14.52,	1.29,	12.22,	9.08,	11.51,	14.98,	12.67,	14.50,	10.56,	1699,	1686
72,	8233,	7814,	8201,	8544,	8972,	8491,	8605,	8348,	8303,	8318,	8877,	8902,	8389,	9064,	14.27,	11.64,	13.19,	13.90,	11.82,	14.52,	1.29,	12.22,	9.08,	11.51,	14.98,	12.67,	14.50,	10.56,	1698,	1687
73,	8245,	7820,	8216,	8549,	8964,	8505,	8622,	8377,	8327,	8351,	8883,	8912,	8411,	9083,	14.27,	11.64,	13.19,	13.90,	11.82,	14.52,	1.29,	12.22,	9.08,	11.53,	14.98,	12.67,	14.50,	10.56,	1698,	1686
74,	8247,	7811,	8215,	8535,	8944,	8488,	8615,	8353,	8308,	8335,	8884,	8911,	8404,	9084,	14.27,	11.64,	13.19,	13.90,	11.82,	14.52,	1.29,	12.22,	9.08,	11.53,	14.98,	12.67,	14.50,	10.56,	1698,	1686
75,	8255,	7817,	8220,	8538,	8964,	8506,	8640,	8348,	8299,	8317,	8897,	8925,	8412,	9088,	14.27,	11.64,	13.19,	13.90,	11.82,	14.52,	1.29,	12.22,	9.08,	11.53,	14.98,	12.62,	14.50,	10.56,	1698,	1686
76,	8254,	7820,	8218,	8548,	8980,	8521,	8648,	8373,	8317,	8329,	8901,	8929,	8423,	9091,	14.27,	11.64,	13.19,	13.90,	11.82,	14.52,	1.29,	12.22,	9.08,	11.53,	14.98,	12.62,	14.46,	10.56,	1697,	1686
77,	8237,	7807,	8196,	8540,	8949,	8477,	8583,	8376,	8316,	8329,	8877,	8904,	8401,	9077,	14.27,	11.64,	13.19,	13.90,	11.82,	14.52,	1.29,	12.22,	9.08,	11.53,	14.98,	12.62,	14.46,	10.59,	1697,	1687
78,	8254,	7826,	8206,	8548,	8948,	8466,	8573,	8384,	8317,	8332,	8883,	8906,	8402,	9083,	14.27,	11.64,	13.19,	13.90,	11.82,	14.52,	1.29,	12.22,	9.08,	11.53,	14.95,	12.62,	14.46,	10.59,	1696,	1688
79,	8278,	7851,	8231,	8568,	8982,	8507,	8626,	8386,	8322,	8336,	8898,	8927,	8422,	9099,	14.27,	11.64,	13.19,	13.90,	11.82,	14.52,	1.29,	12.22,	9.08,	11.53,	14.95,	12.65,	14.46,	10.59,	1698,	1688
80,	8248,	7829,	8207,	8554,	8972,	8501,	8604,	8354,	8308,	8316,	8875,	8914,	8404,	9080,	14.27,	11.64,	13.19,	13.90,	11.82,	14.52,	1.29,	12.22,	9.08,	11.53,	14.95,	12.65,	14.46,	10.59,	1696,	1688
81,	8242,	7819,	8203,	8548,	8960,	8479,	8562,	8351,	8312,	8314,	8880,	8918,	8404,	9080,	14.27,	11.64,	13.19,	13.90,	11.82,	14.52,	1.29,	12.22,	9.08,	11.53,	14.95,	12.65,	14.46,	10.58,	1697,	1688
82,	8294,	7856,	8258,	8585,	8991,	8521,	8633,	8397,	8343,	8349,	8933,	8973,	8446,	9128,	14.27,	11.64,	13.19,	13.90,	11.82,	14.52,	1.29,	12.22,	9.08,	11.53,	14.95,	12.65,	14.46,	10.58,	1697,	1686
83,	8312,	7876,	8293,	8621,	9004,	8554,	8691,	8408,	8348,	8364,	8959,	9007,	8459,	9144,	14.27,	11.64,	13.19,	13.90,	11.82,	14.52,	1.29,	12.22,	9.08,	11.53,	14.95,	12.67,	14.46,	10.58,	1696,	1687
84,	8318,	7882,	8318,	8648,	9000,	8540,	8643,	8390,	8347,	8370,	8982,	9036,	8468,	9148,	14.27,	11.64,	13.19,	13.90,	11.82,	14.52,	1.29,	12.22,	9.08,	11.53,	14.95,	12.67,	14.50,	10.58,	1697,	1685
85,	8359,	7907,	8366,	8682,	9003,	8527,	8611,	8405,	8371,	8404,	9046,	9093,	8514,	9190,	14.27,	11.64,	13.19,	13.90,	11.82,	14.52,	1.29,	12.22,	9.08,	11.53,	14.95,	12.67,	14.50,	10.59,	1697,	1686
86,	8370,	7914,	8393,	8699,	8988,	8514,	8610,	8416,	8368,	8412,	9091,	9125,	8532,	9205,	14.27,	11.64,	13.19,	13.90,	11.82,	14.52,	1.29,	12.22,	9.08,	11.53,	14.96,	12.67,	14.50,	10.59,	1697,	1686
87,	8356,	7912,	8398,	8712,	8988,	8512,	8617,	8385,	8337,	8387,	9084,	9125,	8510,	9190,	14.27,	11.64,	13.19,	13.90,	11.82,	14.52,	1.29,	12.22,	9.08,	11.53,	14.96,	12.64,	14.50,	10.59,	1696,	1686
88,	8383,	7941,	8416,	8747,	9024,	8537,	8642,	8370,	8341,	8373,	9077,	9138,	8505,	9197,	14.27,	11.64,	13.19,	13.90,	11.82,	14.52,	1.29,	12.22,	9.08,	11.53,	14.96,	12.64,	14.49,	10.59,	1697,	1686
89,	8393,	7964,	8419,	8762,	9033,	8549,	8650,	8389,	8353,	8378,	9076,	9138,	8511,	9207,	14.27,	11.64,	13.19,	13.90,	11.82,	14.52,	1.29,	12.22,	9.08,	11.53,	14.96,	12.64,	14.49,	10.58,	1697,	1686
90,	8345,	7933,	8376,	8730,	9000,	8519,	8621,	8381,	8325,	8376,	9047,	9092,	8482,	9175,	14.27,	11.64,	13.19,	13.90,	11.82,	14.52,	1.29,	12.22,	9.08,	11.53,	14.95,	12.64,	14.49,	10.58,	1698,	1686
91,	8329,	7904,	8340,	8702,	8989,	8504,	8616,	8364,	8317,	8372,	9028,	9066,	8465,	9147,	14.27,	11.64,	13.19,	13.90,	11.82,	14.52,	1.29,	12.22,	9.08,	11.53,	14.95,	12.62,	14.49,	10.58,	1698,	1685
92,	8357,	7915,	8348,	8704,	9007,	8538,	8653,	8387,	8350,	8385,	9050,	9089,	8498,	9168,	14.27,	11.64,	13.19,	13.90,	11.82,	14.52,	1.29,	12.22,	9.08,	11.53,	14.95,	12.62,	14.47,	10.58,	1698,	1687
93,	8350,	7913,	8341,	8696,	9006,	8540,	8648,	8395,	8356,	8390,	9050,	9079,	8507,	9180,	14.27,	11.64,	13.19,	13.90,	11.82,	14.52,	1.29,	12.22,	9.08,	11.53,	14.95,	12.62,	14.47,	10.55,	1699,	1686
94,	8314,	7878,	8295,	8665,	8986,	8502,	8610,	8364,	8328,	8371,	8999,	9026,	8460,	9149,	14.27,	11.64,	13.19,	13.90,	11.82,	14.52,	1.29,	12.22,	9.08,	11.53,	14.96,	12.62,	14.47,	10.55,	1698,	1687
95,	8312,	7873,	8274,	8653,	8993,	8515,	8638,	8375,	8331,	8371,	8981,	9017,	8452,	9139,	14.27,	11.64,	13.19,	13.90,	11.82,	14.52,	1.29,	12.22,	9.08,	11.53,	14.96,	12.65,	14.47,	10.55,	1699,	1685
96,	8329,	7895,	8288,	8658,	9017,	8556,	8679,	8405,	8351,	8381,	8996,	9036,	8477,	9158,	14.27,	11.64,	13.19,	13.90,	11.82,	14.52,	1.29,	12.22,	9.08,	11.53,	14.96,	12.65,	14.50,	10.55,	1698,	1686
97,	8325,	7893,	8279,	8653,	9010,	8545,	8654,	8397,	8347,	8373,	8983,	9010,	8459,	9152,	14.27,	11.64,	13.19,	13.90,	11.82,	14.52,	1.29,	12.22,	9.08,	11.53,	14.96,	12.65,	14.50,	10.58,	1699,	1685
98,	8314,	7887,	8261,	8647,	8993,	8534,	8650,	8411,	8352,	8373,	8967,	8985,	8445,	9141,	14.27,	11.64,	13.19,	13.90,	11.82,	14.52,	1.29,	12.22,	9.08,	11.53,	14.96,	12.65,	14.50,	10.58,	1699,	1684
99,	8297,	7877,	8249,	8627,	8995,	8542,	8660,	8413,	8348,	8367,	8953,	8980,	8445,	9135,	14.27,	11.64,	13.19,	13.90,	11.82,	14.52,	1.29,	12.22,	9.08,	11.53,	14.96,	12.62,	14.50,	10.58,	1699,	1686
100,	8266,	7839,	8208,	8587,	8977,	8500,	8591,	8353,	8317,	8332,	8921,	8948,	8413,	9099,	14.27,	11.64,	13.19,	13.90,	11.82,	14.52,	1.29,	12.22,	9.08,	11.53,	14.96,	12.62,	14.50,	10.58,	1698,	1685
101,	8248,	7823,	8177,	8574,	8944,	8463,	8545,	8333,	8304,	8317,	8906,	8921,	8392,	9076,	14.27,	11.64,	13.19,	13.90,	11.82,	14.52,	1.29,	12.22,	9.08,	11.53,	14.96,	12.62,	14.50,	10.56,	1699,	1686
102,	8263,	7846,	8201,	8595,	8954,	8496,	8602,	8380,	8319,	8324,	8915,	8935,	8404,	9092,	14.27,	11.64,	13.19,	13.90,	11.82,	14.52,	1.29,	12.22,	9.08,	11.53,	14.96,	12.62,	14.50,	10.56,	1698,	1685
103,	8265,	7841,	8207,	8588,	8977,	8522,	8631,	8386,	8321,	8323,	8898,	8931,	8395,	9087,	14.27,	11.64,	13.19,	13.90,	11.82,	14.52,	1.29,	12.22,	9.08,	11.53,	14.96,	12.67,	14.50,	10.56,	1698,	1685
104,	8237,	7809,	8165,	8560,	8970,	8494,	8594,	8356,	8311,	8323,	8869,	8900,	8364,	9061,	14.27,	11.64,	13.19,	13.90,	11.82,	14.52,	1.29,	12.22,	9.08,	11.53,	14.96,	12.67,	14.49,	10.56,	1698,	1684
105,	8234,	7819,	8159,	8564,	8966,	8489,	8611,	8380,	8317,	8329,	8889,	8907,	8375,	9076,	14.27,	11.64,	13.19,	13.90,	11.82,	14.52,	1.29,	12.22,	9.08,	11.53,	14.96,	12.67,	14.49,	10.59,	1697,	1685
106,	8255,	7843,	8183,	8577,	8976,	8520,	8640,	8400,	8320,	8331,	8916,	8928,	8400,	9105,	14.27,	11.64,	13.19,	13.90,	11.82,	14.52,	1.29,	12.22,	9.08,	11.53,	14.93,	12.67,	14.49,	10.59,	1698,	1684
107,	8262,	7833,	8179,	8572,	8972,	8509,	8601,	8381,	8322,	8337,	8903,	8918,	8398,	9107,	14.27,	11.64,	13.19,	13.90,	11.82,	14.52,	1.29,	12.22,	9.08,	11.53,	14.93,	12.64,	14.49,	10.59,	1697,	1685
108,	8270,	7830,	8178,	8574,	8973,	8487,	8594,	8395,	8348,	8364,	8905,	8920,	8410,	9110,	14.27,	11.64,	13.19,	13.90,	11.82,	14.52,	1.29,	12.22,	9.08,	11.53,	14.93,	12.64,	14.49,	10.59,	1699,	1686
109,	8297,	7854,	8209,	8591,	8988,	8517,	8658,	8426,	8372,	8382,	8942,	8947,	8443,	9128,	14.27,	11.64,	13.19,	13.90,	11.82,	14.52,	1.29,	12.22,	9.08,	11.53,	14.93,	12.64,	14.49,	10.58,	1697,	1686
110,	8292,	7853,	8210,	8589,	8979,	8521,	8651,	8416,	8360,	8367,	8933,	8941,	8432,	9120,	14.27,	11.64,	13.19,	13.90,	11.82,	14.52,	1.29,	12.22,	9.08,	11.53,	14.98,	12.64,	14.49,	10.58,	1697,	1686
111,	8259,	7825,	8169,	8562,	8966,	8501,	8630,	8408,	8345,	8351,	8887,	8903,	8386,	9090,	14.27,	11.64,	13.19,	13.90,	11.82,	14.52,	1.29,	12.22,	9.08,	11.53,	14.98,	12.65,	14.49,	10.58,	1697,	1685
112,	8253,	7828,	8160,	8557,	8973,	8530,	8694,	8431,	8352,	8354,	8877,	8895,	8374,	9084,	14.27,	11.64,	13.19,	13.90,	11.82,	14.52,	1.29,	12.22,	9.08,	11.53,	14.98,	12.65,	14.49,	10.58,	1696,	1686
113,	8251,	7833,	8167,	8564,	8972,	8531,	8681,	8414,	8346,	8342,	8884,	8896,	8380,	9086,	14.27,	11.64,	13.19,	13.90,	11.82,	14.52,	1.29,	12.22,	9.08,	11.53,	14.98,	12.65,	14.49,	10.56,	1696,	1685
114,	8251,	7826,	8161,	8562,	8966,	8488,	8606,	8396,	8340,	8331,	8890,	8892,	8382,	9086,	14.27,	11.64,	13.19,	13.90,	11.82,	14.52,	1.29,	12.22,	9.08,	11.53,	14.96,	12.65,	14.49,	10.56,	1695,	1686
115,	8267,	7838,	8166,	8561,	8978,	8493,	8621,	8424,	8365,	8349,	8905,	8908,	8393,	9098,	14.27,	11.64,	13.19,	13.90,	11.82,	14.52,	1.29,	12.22,	9.08,	11.53,	14.96,	12.64,	14.49,	10.56,	1696,	1686
116,	8280,	7847,	8174,	8561,	8985,	8521,	8666,	8426,	8375,	8350,	8906,	8923,	8401,	9110,	14.27,	11.64,	13.19,	13.90,	11.82,	14.52,	1.29,	12.22,	9.08,	11.53,	14.96,	12.64,	14.49,	10.56,	1695,	1687
117,	8293,	7853,	8184,	8572,	8997,	8518,	8662,	8401,	8367,	8360,	8924,	8931,	8420,	9125,	14.27,	11.64,	13.19,	13.90,	11.82,	14.52,	1.29,	12.22,	9.08,	11.53,	14.96,	12.64,	14.49,	10.58,	1696,	1686
118,	8295,	7853,	8177,	8575,	9004,	8511,	8649,	8401,	8373,	8382,	8949,	8930,	8432,	9127,	14.27,	11.64,	13.19,	13.90,	11.82,	14.52,	1.29,	12.22,	9.08,	11.53,	14.95,	12.64,	14.49,	10.58,	1695,	1686
119,	8274,	7845,	8155,	8569,	8994,	8530,	8672,	8417,	8381,	8362,	8936,	8918,	8416,	9115,	14.27,	11.64,	13.19,	13.90,	11.82,	14.52,	1.29,	12.22,	9.08,	11.53,	14.95,	12.62,	14.49,	10.58,	1696,	1687
120,	8272,	7852,	8158,	8577,	9001,	8534,	8676,	8415,	8373,	8347,	8922,	8918,	8403,	9116,	14.27,	11.64,	13.19,	13.90,	11.82,	14.52,	1.29,	12.22,	9.08,	11.53,	14.95,	12.62,	14.46,	10.58,	1696,	1687
121,	8284,	7858,	8167,	8579,	9011,	8496,	8615,	8394,	8361,	8363,	8930,	8916,	8409,	9113,	14.27,	11.64,	13.19,	13.90,	11.82,	14.52,	1.29,	12.22,	9.08,	11.53,	14.95,	12.62,	14.46,	10.59,	1696,	1687
122,	8237,	7821,	8126,	8539,	8979,	8454,	8548,	8353,	8328,	8324,	8884,	8872,	8368,	9064,	14.27,	11.64,	13.19,	13.90,	11.82,	14.52,	1.29,	12.22,	9.08,	11.53,	14.93,	12.62,	14.46,	10.59,	1696,	1687
123,	8171,	7770,	8064,	8486,	8938,	8456,	8560,	8312,	8277,	8243,	8796,	8804,	8283,	8999,	14.27,	11.64,	13.19,	13.90,	11.82,	14.52,	1.29,	12.22,	9.08,	11.53,	14.93,	12.62,	14.46,	10.59,	1696,	1688
124,	8168,	7758,	8050,	8464,	8936,	8492,	8626,	8325,	8265,	8232,	8773,	8784,	8265,	8990,	14.27,	11.64,	13.19,	13.90,	11.82,	14.52,	1.29,	12.22,	9.08,	11.53,	14.93,	12.62,	14.49,	10.59,	1696,	1688
125,	8192,	7763,	8076,	8467,	8946,	8507,	8651,	8356,	8292,	8266,	8812,	8810,	8311,	9031,	14.27,	11.64,	13.19,	13.90,	11.82,	14.52,	1.29,	12.22,	9.08,	11.53,	14.93,	12.62,	14.49,	10.59,	1696,	1688
126,	8222,	7788,	8116,	8506,	8953,	8508,	8651,	8382,	8336,	8308,	8878,	8860,	8362,	9076,	14.27,	11.64,	13.19,	13.90,	11.82,	14.52,	1.29,	12.22,	9.08,	11.53,	14.98,	12.62,	14.49,	10.59,	1697,	1688
127,	8279,	7842,	8173,	8576,	8983,	8532,	8668,	8438,	8393,	8376,	8954,	8926,	8424,	9122,	14.27,	11.64,	13.19,	13.90,	11.82,	14.52,	1.29,	12.22,	9.08,	11.53,	14.98,	12.62,	14.49,	10.59,	1696,	1687
0,	8279,	7853,	8183,	8587,	9000,	8524,	8651,	8418,	8385,	8391,	8983,	8946,	8438,	9129,	14.27,	11.64,	13.19,	13.90,	11.82,	14.52,	1.29,	12.22,	9.08,	11.53,	14.98,	12.62,	14.49,	10.59,	1696,	1687
1,	8249,	7821,	8153,	8560,	8972,	8481,	8616,	8362,	8336,	8338,	8939,	8918,	8396,	9093,	14.27,	11.61,	13.19,	13.90,	11.82,	14.52,	1.29,	12.22,	9.08,	11.53,	14.98,	12.62,	14.49,	10.59,	1697,	1686
2,	8260,	7822,	8156,	8566,	8965,	8479,	8608,	8377,	8335,	8339,	8935,	8913,	8403,	9093,	14.27,	11.61,	13.16,	13.90,	11.82,	14.52,	1.29,	12.22,	9.08,	11.53,	14.98,	12.62,	14.49,	10.59,	1696,	1686
3,	8256,	7827,	8158,	8571,	8970,	8478,	8597,	8386,	8348,	8352,	8947,	8912,	8403,	9098,	14.27,	11.61,	13.16,	13.76,	11.82,	14.52,	1.29,	12.22,	9.08,	11.53,	14.98,	12.62,	14.49,	10.59,	1696,	1685
4,	8239,	7819,	8142,	8564,	8979,	8468,	8596,	8371,	8341,	8327,	8920,	8903,	8374,	9088,	14.27,	11.61,	13.16,	13.76,	11.79,	14.52,	1.29,	12.22,	9.08,	11.53,	14.98,	12.62,	14.49,	10.59,	1696,	1686
5,	8233,	7812,	8128,	8556,	8982,	8477,	8560,	8373,	8337,	8314,	8901,	8893,	8366,	9080,	14.27,	11.61,	13.16,	13.76,	11.79,	14.52,	1.29,	12.22,	9.08,	11.53,	14.98,	12.62,	14.49,	10.59,	1697,	1686
6,	8235,	7805,	8131,	8548,	8967,	8485,	8477,	8373,	8341,	8337,	8943,	8895,	8387,	9084,	14.27,	11.61,	13.16,	13.76,	11.79,	14.52,	1.26,	12.22,	9.08,	11.53,	14.98,	12.62,	14.49,	10.59,	1696,	1689
7,	8244,	7799,	8139,	8537,	8962,	8492,	8463,	8384,	8351,	8359,	8986,	8912,	8410,	9099,	14.27,	11.61,	13.16,	13.76,	11.79,	14.52,	1.26,	12.25,	9.08,	11.53,	14.98,	12.62,	14.49,	10.59,	1698,	1688
8,	8257,	7800,	8139,	8526,	8975,	8501,	8487,	8409,	8368,	8364,	8987,	8924,	8425,	9115,	14.27,	11.61,	13.16,	13.76,	11.79,	14.52,	1.26,	12.25,	9.11,	11.53,	14.98,	12.62,	14.49,	10.59,	1696,	1688
9,	8258,	7807,	8144,	8527,	8973,	8504,	8474,	8401,	8368,	8376,	8996,	8924,	8426,	9121,	14.27,	11.61,	13.16,	13.76,	11.79,	14.52,	1.26,	12.25,	9.11,	11.53,	14.98,	12.62,	14.49,	10.59,	1697,	1689
10,	8250,	7811,	8156,	8538,	8965,	8512,	8487,	8375,	8351,	8384,	9005,	8929,	8417,	9116,	14.27,	11.61,	13.16,	13.76,	11.79,	14.52,	1.26,	12.25,	9.11,	11.53,	14.98,	12.62,	14.49,	10.59,	1697,	1688
11,	8249,	7811,	8152,	8545,	8975,	8521,	8511,	8367,	8345,	8363,	8986,	8927,	8406,	9104,	14.27,	11.61,	13.16,	13.76,	11.79,	14.52,	1.26,	12.25,	9.11,	11.53,	14.98,	12.67,	14.49,	10.59,	1697,	1689
12,	8243,	7801,	8132,	8536,	8972,	8492,	8459,	8356,	8342,	8345,	8967,	8907,	8402,	9092,	14.27,	11.61,	13.16,	13.76,	11.79,	14.52,	1.26,	12.25,	9.11,	11.53,	14.98,	12.67,	14.50,	10.59,	1697,	1689
13,	8240,	7798,	8134,	8530,	8948,	8458,	8422,	8354,	8340,	8362,	8971,	8904,	8408,	9092,	14.27,	11.61,	13.16,	13.76,	11.79,	14.52,	1.26,	12.25,	9.11,	11.53,	14.98,	12.67,	14.50,	10.58,	1697,	1689
14,	8239,	7798,	8147,	8533,	8941,	8467,	8455,	8377,	8344,	8370,	8970,	8916,	8402,	9097,	14.27,	11.61,	13.16,	13.76,	11.79,	14.52,	1.26,	12.25,	9.11,	11.53,	14.98,	12.67,	14.50,	10.58,	1697,	1688
15,	8219,	7780,	8119,	8516,	8947,	8478,	8468,	8373,	8320,	8342,	8947,	8897,	8376,	9081,	14.27,	11.61,	13.16,	13.76,	11.79,	14.52,	1.26,	12.25,	9.11,	11.53,	14.98,	12.62,	14.50,	10.58,	1697,	1689
16,	8216,	7775,	8100,	8504,	8948,	8491,	8495,	8369,	8287,	8331,	8935,	8885,	8367,	9080,	14.27,	11.61,	13.16,	13.76,	11.79,	14.52,	1.26,	12.25,	9.11,	11.53,	14.98,	12.62,	14.50,	10.58,	1698,	1687
17,	8239,	7786,	8121,	8515,	8948,	8500,	8525,	8385,	8279,	8333,	8935,	8900,	8374,	9095,	14.27,	11.61,	13.16,	13.76,	11.79,	14.52,	1.26,	12.25,	9.11,	11.53,	14.98,	12.62,	14.50,	10.58,	1696,	1688
18,	8227,	7773,	8115,	8504,	8939,	8478,	8486,	8362,	8262,	8311,	8914,	8884,	8354,	9077,	14.27,	11.61,	13.16,	13.76,	11.79,	14.52,	1.26,	12.25,	9.11,	11.53,	14.98,	12.62,	14.50,	10.58,	1697,	1686
19,	8203,	7747,	8088,	8475,	8922,	8461,	8454,	8339,	8243,	8302,	8898,	8857,	8339,	9054,	14.27,	11.61,	13.16,	13.76,	11.79,	14.52,	1.26,	12.25,	9.11,	11.53,	14.98,	12.62,	14.50,	10.58,	1696,	1687
20,	8203,	7742,	8084,	8469,	8908,	8452,	8454,	8354,	8249,	8312,	8908,	8862,	8348,	9055,	14.27,	11.61,	13.16,	13.76,	11.79,	14.52,	1.26,	12.25,	9.11,	11.53,	14.98,	12.62,	14.50,	10.58,	1697,	1688
21,	8206,	7753,	8091,	8479,	8914,	8458,	8479,	8353,	8254,	8313,	8916,	8872,	8347,	9058,	14.27,	11.61,	13.16,	13.76,	11.79,	14.52,	1.26,	12.25,	9.11,	11.53,	14.98,	12.62,	14.50,	10.58,	1697,	1686
22,	8203,	7753,	8090,	8476,	8931,	8482,	8515,	8336,	8244,	8313,	8901,	8866,	8343,	9051,	14.27,	11.61,	13.16,	13.76,	11.79,	14.52,	1.26,	12.25,	9.11,	11.53,	14.98,	12.62,	14.50,	10.58,	1696,	1688
23,	8196,	7739,	8078,	8462,	8923,	8468,	8490,	8345,	8240,	8313,	8889,	8853,	8339,	9046,	14.27,	11.61,	13.16,	13.76,	11.79,	14.52,	1.26,	12.25,	9.11,	11.53,	14.98,	12.62,	14.50,	10.58,	1697,	1686
24,	8203,	7752,	8084,	8467,	8921,	8460,	8478,	8380,	8255,	8325,	8900,	8863,	8345,	9062,	14.27,	11.61,	13.16,	13.76,	11.79,	14.52,	1.26,	12.25,	9.11,	11.53,	14.98,	12.62,	14.50,	10.58,	1695,	1686
25,	8229,	7781,	8110,	8481,	8944,	8499,	8536,	8397,	8268,	8348,	8915,	8888,	8364,	9082,	14.27,	11.61,	13.16,	13.76,	11.79,	14.52,	1.26,	12.25,	9.11,	11.53,	14.98,	12.62,	14.50,	10.58,	1696,	1685
26,	8236,	7775,	8113,	8479,	8937,	8496,	8527,	8369,	8252,	8339,	8908,	8884,	8359,	9077,	14.27,	11.61,	13.16,	13.76,	11.79,	14.52,	1.26,	12.25,	9.11,	11.53,	14.98,	12.62,	14.50,	10.58,	1696,	1685
27,	8225,	7760,	8103,	8477,	8912,	8455,	8468,	8339,	8233,	8311,	8901,	8873,	8344,	9064,	14.27,	11.61,	13.16,	13.76,	11.79,	14.52,	1.26,	12.25,	9.11,	11.53,	14.98,	12.62,	14.50,	10.58,	1696,	1685
28,	8241,	7781,	8123,	8496,	8931,	8469,	8496,	8356,	8244,	8307,	8913,	8891,	8359,	9076,	14.27,	11.61,	13.16,	13.76,	11.79,	14.52,	1.26,	12.25,	9.11,	11.53,	14.98,	12.62,	14.50,	10.58,	1695,	1686
29,	8259,	7793,	8140,	8506,	8956,	8472,	8500,	8367,	8256,	8314,	8917,	8905,	8377,	9093,	14.27,	11.61,	13.16,	13.76,	11.79,	14.52,	1.26,	12.25,	9.11,	11.53,	14.98,	12.62,	14.50,	10.58,	1697,	1686
30,	8242,	7773,	8127,	8493,	8940,	8446,	8463,	8349,	8250,	8326,	8911,	8899,	8370,	9090,	14.27,	11.61,	13.16,	13.76,	11.79,	14.52,	1.26,	12.25,	9.11,	11.53,	14.98,	12.62,	14.50,	10.58,	1696,	1685
31,	8249,	7784,	8143,	8512,	8949,	8483,	8528,	8363,	8259,	8356,	8929,	8909,	8373,	9094,	14.27,	11.61,	13.16,	13.76,	11.79,	14.52,	1.26,	12.25,	9.11,	11.53,	14.98,	12.62,	14.50,	10.58,	1696,	1685
32,	8274,	7815,	8166,	8534,	8981,	8521,	8583,	8401,	8278,	8378,	8952,	8925,	8387,	9108,	14.27,	11.61,	13.16,	13.76,	11.79,	14.52,	1.26,	12.25,	9.11,	11.53,	14.98,	12.62,	14.50,	10.58,	1697,	1684
33,	8278,	7808,	8156,	8508,	8970,	8502,	8537,	8407,	8288,	8379,	8949,	8924,	8395,	9114,	14.27,	11.61,	13.16,	13.76,	11.79,	14.52,	1.26,	12.25,	9.11,	11.53,	14.98,	12.62,	14.50,	10.58,	1697,	1685
