=====================
  Detection Session  
=====================
Name:		Ahmed Hemaly
Source:		Session_2014_05_06_84005/[T][2014-05-06 23-31-56] Ahmed Hemaly.csv
Date:		2014-05-10 20:25:37
Trials:		10
PreTime:	3
RecTime:	4
PostTime:	4
Classifier:	LEASTSQUARES
AvgDetectTime:	0.160080242157
Triggers:	3865, 5387, 6910, 8432, 9955, 11478, 13001, 14524, 16046, 17569
Directions:	2, 1, 2, 1, 1, 1, 2, 1, 1, 1
ClassesTypes:	2, 1, 2, 1, 2, 1, 2, 1, 2, 1
ClassesNames:	RIGHT, LEFT

RawData:
Count,	F3,	FC5,	AF3,	F7,	T7,	P7,	O1,	O2,	P8,	T8,	F8,	AF4,	FC6,	F4,	Q_F3,	Q_FC5,	Q_AF3,	Q_F7,	Q_T7,	Q_P7,	Q_O1,	Q_O2,	Q_P8,	Q_T8,	Q_F8,	Q_AF4,	Q_FC6,	Q_F4,	GyroX,	GyroY
54,	8167,	7795,	8039,	8375,	8927,	8418,	8475,	8358,	8336,	8189,	8984,	8843,	8354,	9035,	0.00,	0.00,	0.00,	0.00,	0.00,	0.00,	0.00,	0.00,	0.00,	0.00,	0.00,	0.00,	0.00,	0.00,	1694,	1686
55,	8163,	7787,	8033,	8371,	8914,	8437,	8497,	8375,	8344,	8217,	8979,	8835,	8364,	9034,	0.00,	0.00,	0.00,	0.00,	0.00,	0.00,	0.00,	0.00,	0.00,	0.00,	0.00,	0.00,	0.00,	0.00,	1695,	1687
56,	8141,	7766,	8007,	8346,	8918,	8443,	8522,	8355,	8326,	8216,	8948,	8816,	8332,	8999,	15.13,	14.09,	14.87,	1.73,	13.48,	2.18,	2.24,	12.28,	12.19,	12.40,	0.00,	0.00,	0.00,	0.00,	1695,	1686
57,	8111,	7737,	7980,	8325,	8918,	8429,	8502,	8322,	8294,	8169,	8919,	8782,	8294,	8958,	15.13,	14.09,	14.87,	1.73,	13.48,	2.18,	2.24,	12.28,	12.19,	12.40,	0.00,	0.00,	0.00,	0.00,	1695,	1687
58,	8124,	7754,	7999,	8348,	8933,	8445,	8510,	8368,	8322,	8191,	8940,	8793,	8325,	8980,	15.13,	14.09,	14.87,	1.73,	13.48,	2.18,	2.24,	12.28,	12.19,	12.40,	0.00,	0.00,	0.00,	0.00,	1696,	1685
59,	8142,	7778,	8021,	8362,	8940,	8457,	8549,	8417,	8362,	8238,	8965,	8819,	8350,	9012,	15.13,	14.09,	14.87,	1.73,	13.48,	2.18,	2.24,	12.28,	12.19,	12.40,	0.00,	0.00,	0.00,	0.00,	1695,	1686
60,	8117,	7756,	7993,	8339,	8926,	8442,	8543,	8386,	8338,	8212,	8946,	8799,	8322,	8987,	15.13,	14.09,	14.87,	1.73,	13.48,	2.18,	2.24,	12.28,	12.19,	12.40,	0.00,	0.00,	0.00,	0.00,	1697,	1686
61,	8099,	7741,	7961,	8322,	8906,	8441,	8515,	8365,	8315,	8190,	8923,	8774,	8301,	8958,	15.13,	14.09,	14.87,	1.73,	13.48,	2.18,	2.24,	12.28,	12.19,	12.40,	0.00,	0.00,	0.00,	0.00,	1696,	1686
62,	8116,	7757,	7971,	8329,	8899,	8445,	8524,	8393,	8336,	8201,	8929,	8780,	8312,	8969,	15.13,	14.09,	14.87,	1.73,	13.48,	2.18,	2.24,	12.28,	12.19,	12.40,	0.00,	0.00,	0.00,	0.00,	1697,	1686
63,	8135,	7765,	7995,	8340,	8922,	8441,	8549,	8409,	8352,	8207,	8945,	8801,	8334,	8993,	15.13,	14.09,	14.87,	1.73,	13.48,	2.18,	2.24,	12.28,	12.19,	12.40,	0.00,	0.00,	0.00,	0.00,	1697,	1686
64,	8136,	7764,	7998,	8347,	8950,	8450,	8553,	8400,	8346,	8216,	8946,	8812,	8342,	8998,	15.13,	14.09,	14.87,	1.73,	13.48,	2.18,	2.24,	12.28,	12.19,	12.40,	0.00,	0.00,	0.00,	0.00,	1696,	1686
65,	8125,	7764,	7987,	8347,	8939,	8448,	8535,	8385,	8332,	8205,	8939,	8801,	8324,	8979,	15.13,	14.09,	14.87,	1.73,	13.48,	2.18,	2.24,	12.28,	12.19,	12.40,	0.00,	0.00,	0.00,	0.00,	1697,	1685
66,	8131,	7770,	7994,	8351,	8916,	8438,	8516,	8378,	8326,	8201,	8945,	8793,	8322,	8976,	15.13,	14.09,	14.87,	1.73,	13.48,	2.18,	2.24,	12.28,	12.19,	12.40,	0.00,	0.00,	0.00,	0.00,	1696,	1686
67,	8163,	7799,	8030,	8378,	8939,	8465,	8541,	8403,	8349,	8242,	8975,	8831,	8365,	9018,	15.13,	14.09,	14.87,	1.73,	13.48,	2.18,	2.24,	12.28,	12.19,	12.40,	0.00,	0.00,	0.00,	0.00,	1696,	1685
68,	8175,	7811,	8043,	8390,	8961,	8489,	8570,	8413,	8363,	8254,	8985,	8847,	8377,	9041,	15.13,	14.09,	14.87,	1.73,	13.48,	2.18,	2.24,	12.28,	12.19,	12.40,	0.00,	0.00,	0.00,	0.00,	1695,	1686
69,	8139,	7781,	8008,	8363,	8943,	8467,	8551,	8376,	8327,	8212,	8951,	8813,	8340,	9006,	15.13,	14.09,	14.87,	1.73,	13.48,	2.18,	2.24,	12.28,	12.19,	12.40,	0.00,	0.00,	0.00,	0.00,	1696,	1685
70,	8126,	7773,	7987,	8349,	8936,	8463,	8551,	8372,	8325,	8218,	8948,	8812,	8338,	8995,	15.13,	14.09,	14.87,	1.73,	13.48,	2.18,	2.24,	12.28,	12.19,	12.40,	0.00,	0.00,	0.00,	0.00,	1695,	1685
71,	8132,	7783,	7986,	8350,	8945,	8482,	8573,	8391,	8355,	8233,	8970,	8822,	8355,	9007,	15.13,	14.09,	14.87,	1.73,	13.48,	2.18,	2.24,	12.28,	12.19,	12.40,	0.00,	0.00,	0.00,	0.00,	1696,	1684
72,	8108,	7761,	7974,	8344,	8948,	8456,	8527,	8371,	8345,	8211,	8955,	8798,	8339,	8988,	15.13,	14.09,	14.87,	1.73,	13.48,	2.18,	2.24,	12.28,	12.19,	12.40,	0.00,	0.00,	0.00,	0.00,	1695,	1684
73,	8095,	7743,	7971,	8343,	8935,	8426,	8485,	8369,	8337,	8218,	8940,	8785,	8326,	8970,	15.13,	14.09,	14.87,	1.73,	13.48,	2.18,	2.24,	12.28,	12.19,	12.40,	14.74,	0.00,	0.00,	0.00,	1695,	1684
74,	8103,	7750,	7974,	8341,	8913,	8446,	8539,	8397,	8347,	8230,	8942,	8785,	8323,	8972,	15.13,	14.09,	14.87,	1.73,	13.48,	2.18,	2.24,	12.28,	12.19,	12.40,	14.70,	13.99,	14.61,	13.63,	1695,	1684
75,	8106,	7759,	7967,	8341,	8920,	8477,	8580,	8406,	8347,	8225,	8940,	8789,	8320,	8982,	15.13,	14.09,	14.87,	1.73,	13.48,	2.18,	2.24,	12.28,	12.19,	12.40,	14.70,	13.99,	14.61,	13.63,	1695,	1685
76,	8120,	7769,	7977,	8362,	8951,	8476,	8550,	8404,	8347,	8232,	8957,	8812,	8335,	9000,	15.13,	14.09,	14.87,	1.73,	13.48,	2.18,	2.24,	12.28,	12.19,	12.40,	14.70,	13.99,	14.61,	13.63,	1696,	1685
77,	8131,	7772,	7998,	8370,	8948,	8453,	8524,	8402,	8353,	8231,	8973,	8822,	8351,	9007,	15.13,	14.09,	14.87,	1.73,	13.48,	2.18,	2.24,	12.28,	12.19,	12.40,	14.70,	13.99,	14.61,	13.63,	1695,	1686
78,	8129,	7769,	8003,	8352,	8930,	8456,	8544,	8405,	8351,	8233,	8950,	8815,	8348,	9004,	15.13,	14.09,	14.87,	1.73,	13.48,	2.18,	2.24,	12.28,	12.19,	12.40,	14.70,	13.99,	14.61,	13.63,	1696,	1685
79,	8142,	7774,	8009,	8357,	8941,	8470,	8556,	8398,	8347,	8252,	8940,	8829,	8344,	9013,	15.13,	14.09,	14.87,	1.73,	13.48,	2.18,	2.24,	12.28,	12.19,	12.40,	14.70,	13.99,	14.61,	13.63,	1695,	1685
80,	8162,	7781,	8025,	8378,	8948,	8452,	8531,	8377,	8343,	8244,	8965,	8851,	8357,	9029,	15.13,	14.09,	14.87,	1.73,	13.48,	2.18,	2.24,	12.28,	12.19,	12.40,	14.70,	13.99,	14.62,	13.63,	1696,	1686
81,	8165,	7785,	8037,	8383,	8932,	8445,	8524,	8382,	8346,	8224,	8981,	8854,	8375,	9036,	15.13,	14.09,	14.87,	1.73,	13.48,	2.18,	2.24,	12.28,	12.19,	12.40,	14.70,	13.99,	14.62,	13.63,	1695,	1686
82,	8163,	7783,	8029,	8377,	8927,	8475,	8556,	8404,	8351,	8222,	8970,	8839,	8366,	9027,	15.13,	14.09,	14.87,	1.73,	13.48,	2.18,	2.24,	12.28,	12.19,	12.40,	14.70,	13.99,	14.62,	13.63,	1696,	1686
83,	8154,	7770,	8005,	8366,	8923,	8472,	8550,	8381,	8331,	8214,	8948,	8815,	8339,	9002,	15.13,	14.09,	14.87,	1.73,	13.48,	2.18,	2.24,	12.28,	12.19,	12.40,	14.70,	14.01,	14.62,	13.63,	1695,	1686
84,	8155,	7777,	8011,	8374,	8942,	8450,	8512,	8354,	8324,	8237,	8962,	8827,	8347,	9008,	15.13,	14.09,	14.87,	1.73,	13.48,	2.18,	2.24,	12.28,	12.19,	12.40,	14.70,	14.01,	14.58,	13.63,	1696,	1688
85,	8166,	7805,	8035,	8395,	8981,	8484,	8552,	8388,	8357,	8286,	8994,	8855,	8373,	9040,	15.13,	14.09,	14.87,	1.73,	13.48,	2.18,	2.24,	12.28,	12.19,	12.40,	14.70,	14.01,	14.58,	13.63,	1696,	1685
86,	8146,	7784,	8011,	8377,	8962,	8488,	8584,	8396,	8356,	8252,	8969,	8829,	8353,	9020,	15.13,	14.09,	14.87,	1.73,	13.48,	2.18,	2.24,	12.28,	12.19,	12.40,	14.70,	14.01,	14.58,	13.63,	1694,	1687
87,	8111,	7743,	7973,	8351,	8907,	8418,	8499,	8341,	8318,	8190,	8925,	8795,	8328,	8969,	15.13,	14.09,	14.87,	1.73,	13.48,	2.18,	2.24,	12.28,	12.19,	12.40,	14.70,	14.03,	14.58,	13.63,	1696,	1686
88,	8123,	7763,	7995,	8372,	8931,	8421,	8468,	8357,	8344,	8234,	8954,	8816,	8347,	8981,	15.13,	14.09,	14.87,	1.73,	13.48,	2.18,	2.24,	12.28,	12.19,	12.40,	14.70,	14.03,	14.58,	13.63,	1695,	1687
89,	8146,	7796,	8026,	8393,	8982,	8498,	8561,	8420,	8394,	8292,	8989,	8839,	8362,	9014,	15.13,	14.09,	14.87,	1.73,	13.48,	2.18,	2.24,	12.28,	12.19,	12.40,	14.70,	14.03,	14.58,	13.64,	1695,	1686
90,	8131,	7772,	8002,	8369,	8951,	8490,	8576,	8397,	8359,	8242,	8956,	8818,	8340,	8987,	15.13,	14.09,	14.87,	1.73,	13.48,	2.18,	2.24,	12.28,	12.19,	12.40,	14.70,	14.03,	14.58,	13.64,	1695,	1686
91,	8120,	7752,	7986,	8360,	8919,	8442,	8513,	8354,	8315,	8198,	8939,	8805,	8334,	8965,	15.13,	14.09,	14.87,	1.73,	13.48,	2.18,	2.24,	12.28,	12.19,	12.40,	14.70,	14.00,	14.58,	13.64,	1695,	1687
92,	8139,	7779,	8016,	8385,	8949,	8469,	8545,	8383,	8350,	8253,	8979,	8833,	8364,	9002,	15.13,	14.09,	14.87,	1.73,	13.48,	2.18,	2.24,	12.28,	12.19,	12.40,	14.70,	14.00,	14.59,	13.64,	1695,	1686
93,	8140,	7781,	8011,	8383,	8952,	8493,	8586,	8396,	8371,	8286,	8991,	8845,	8367,	9015,	15.13,	14.09,	14.87,	1.73,	13.48,	2.18,	2.24,	12.28,	12.19,	12.40,	14.70,	14.00,	14.59,	13.66,	1695,	1686
94,	8120,	7750,	7977,	8360,	8927,	8460,	8536,	8364,	8336,	8244,	8965,	8818,	8342,	8989,	15.13,	14.09,	14.87,	1.73,	13.48,	2.18,	2.24,	12.28,	12.19,	12.40,	14.70,	14.00,	14.59,	13.66,	1695,	1687
95,	8123,	7757,	7985,	8370,	8936,	8449,	8508,	8373,	8334,	8232,	8966,	8811,	8349,	8994,	15.13,	14.09,	14.87,	1.73,	13.48,	2.18,	2.24,	12.28,	12.19,	12.40,	14.70,	13.99,	14.59,	13.66,	1695,	1686
96,	8143,	7784,	8008,	8395,	8956,	8466,	8542,	8388,	8351,	8261,	8981,	8833,	8375,	9011,	15.13,	14.09,	14.87,	1.73,	13.48,	2.18,	2.24,	12.28,	12.19,	12.40,	14.70,	13.99,	14.61,	13.66,	1695,	1686
97,	8145,	7783,	8007,	8399,	8949,	8467,	8562,	8358,	8326,	8261,	8976,	8835,	8370,	9007,	15.13,	14.09,	14.87,	1.73,	13.48,	2.18,	2.24,	12.28,	12.19,	12.40,	14.70,	13.99,	14.61,	13.66,	1696,	1685
98,	8136,	7775,	7997,	8393,	8938,	8466,	8554,	8338,	8311,	8246,	8964,	8818,	8347,	9000,	15.13,	14.09,	14.87,	1.73,	13.48,	2.18,	2.24,	12.28,	12.19,	12.40,	14.73,	13.99,	14.61,	13.66,	1696,	1685
99,	8135,	7776,	7987,	8389,	8950,	8465,	8538,	8361,	8328,	8247,	8962,	8818,	8350,	9001,	15.13,	14.09,	14.87,	1.73,	13.48,	2.18,	2.24,	12.28,	12.19,	12.40,	14.73,	14.01,	14.61,	13.66,	1697,	1685
100,	8155,	7786,	7997,	8395,	8973,	8486,	8563,	8405,	8358,	8275,	8979,	8840,	8379,	9022,	15.13,	14.09,	14.87,	1.73,	13.48,	2.18,	2.24,	12.28,	12.19,	12.40,	14.73,	14.01,	14.62,	13.66,	1695,	1686
101,	8192,	7813,	8029,	8415,	8995,	8530,	8631,	8441,	8389,	8304,	8988,	8860,	8394,	9053,	15.13,	14.09,	14.87,	1.73,	13.48,	2.18,	2.24,	12.28,	12.19,	12.40,	14.73,	14.01,	14.62,	13.67,	1696,	1686
102,	8194,	7815,	8031,	8410,	8981,	8509,	8595,	8418,	8376,	8270,	8970,	8853,	8375,	9048,	15.13,	14.09,	14.87,	1.73,	13.48,	2.18,	2.24,	12.28,	12.19,	12.40,	14.74,	14.01,	14.62,	13.67,	1696,	1686
103,	8160,	7782,	8000,	8379,	8937,	8451,	8497,	8367,	8337,	8233,	8977,	8839,	8364,	9011,	15.13,	14.09,	14.87,	1.73,	13.48,	2.18,	2.24,	12.28,	12.19,	12.40,	14.74,	14.00,	14.62,	13.67,	1696,	1687
104,	8154,	7775,	7991,	8370,	8939,	8474,	8533,	8379,	8341,	8288,	9013,	8850,	8380,	9010,	15.13,	14.09,	14.87,	1.73,	13.48,	2.18,	2.24,	12.28,	12.19,	12.40,	14.74,	14.00,	14.59,	13.67,	1696,	1684
105,	8164,	7781,	7996,	8367,	8980,	8520,	8610,	8412,	8358,	8325,	9017,	8852,	8385,	9025,	15.13,	14.09,	14.87,	1.73,	13.48,	2.18,	2.24,	12.28,	12.19,	12.40,	14.74,	14.00,	14.59,	13.66,	1695,	1687
106,	8141,	7762,	7988,	8351,	8979,	8507,	8596,	8403,	8343,	8263,	8997,	8827,	8374,	9007,	15.13,	14.09,	14.87,	1.73,	13.48,	2.18,	2.24,	12.28,	12.19,	12.40,	14.70,	14.00,	14.59,	13.66,	1696,	1685
107,	8122,	7753,	7983,	8339,	8944,	8497,	8575,	8395,	8335,	8234,	8998,	8828,	8366,	8996,	15.13,	14.09,	14.87,	1.73,	13.48,	2.18,	2.24,	12.28,	12.19,	12.40,	14.70,	14.03,	14.59,	13.66,	1695,	1685
108,	8144,	7762,	7992,	8341,	8944,	8496,	8579,	8407,	8348,	8263,	9008,	8856,	8376,	9021,	15.13,	14.09,	14.87,	1.73,	13.48,	2.18,	2.24,	12.28,	12.19,	12.40,	14.70,	14.03,	14.62,	13.66,	1695,	1686
109,	8161,	7768,	8006,	8354,	8955,	8478,	8562,	8404,	8353,	8247,	9008,	8860,	8389,	9042,	15.13,	14.09,	14.87,	1.73,	13.48,	2.18,	2.24,	12.28,	12.19,	12.40,	14.70,	14.03,	14.62,	13.66,	1695,	1686
110,	8161,	7774,	8018,	8363,	8941,	8472,	8567,	8413,	8364,	8246,	9006,	8847,	8389,	9036,	15.13,	14.09,	14.87,	1.73,	13.48,	2.18,	2.24,	12.28,	12.19,	12.40,	14.74,	14.03,	14.62,	13.66,	1695,	1686
111,	8155,	7772,	8021,	8354,	8940,	8476,	8599,	8446,	8388,	8312,	9006,	8850,	8392,	9024,	15.13,	14.09,	14.87,	1.73,	13.48,	2.18,	2.24,	12.28,	12.19,	12.40,	14.74,	14.03,	14.62,	13.66,	1694,	1687
112,	8139,	7763,	8015,	8344,	8955,	8469,	8601,	8447,	8378,	8325,	9009,	8852,	8392,	9018,	15.13,	14.09,	14.87,	1.73,	13.48,	2.18,	2.24,	12.28,	12.19,	12.40,	14.74,	14.03,	14.59,	13.66,	1695,	1687
113,	8140,	7771,	8020,	8350,	8951,	8475,	8599,	8417,	8339,	8261,	9005,	8847,	8381,	9025,	15.13,	14.09,	14.87,	1.73,	13.48,	2.18,	2.24,	12.28,	12.19,	12.40,	14.74,	14.03,	14.59,	13.67,	1694,	1687
114,	8157,	7776,	8030,	8351,	8946,	8490,	8608,	8424,	8340,	8247,	8986,	8849,	8377,	9025,	15.13,	14.09,	14.87,	1.73,	13.48,	2.18,	2.24,	12.28,	12.19,	12.40,	14.70,	14.03,	14.59,	13.67,	1694,	1687
115,	8146,	7755,	8024,	8342,	8959,	8493,	8611,	8472,	8375,	8285,	8969,	8841,	8374,	9007,	15.13,	14.09,	14.87,	1.73,	13.48,	2.18,	2.24,	12.28,	12.19,	12.40,	14.70,	14.03,	14.59,	13.67,	1694,	1686
116,	8123,	7745,	8014,	8342,	8939,	8487,	8603,	8491,	8386,	8290,	8974,	8833,	8371,	9007,	15.13,	14.09,	14.87,	1.73,	13.48,	2.18,	2.24,	12.28,	12.19,	12.40,	14.70,	14.03,	14.62,	13.67,	1693,	1688
117,	8127,	7751,	8021,	8345,	8918,	8480,	8591,	8467,	8379,	8277,	8992,	8840,	8390,	9022,	15.13,	14.09,	14.87,	1.73,	13.48,	2.18,	2.24,	12.28,	12.19,	12.40,	14.70,	14.03,	14.62,	13.67,	1695,	1685
118,	8135,	7751,	8032,	8349,	8949,	8481,	8583,	8439,	8375,	8284,	9003,	8850,	8409,	9023,	15.13,	14.09,	14.87,	1.73,	13.48,	2.18,	2.24,	12.28,	12.19,	12.40,	14.74,	14.03,	14.62,	13.67,	1693,	1686
119,	8128,	7750,	8032,	8348,	8963,	8481,	8571,	8425,	8371,	8285,	8996,	8848,	8392,	9018,	15.13,	14.09,	14.87,	1.73,	13.48,	2.18,	2.24,	12.28,	12.19,	12.40,	14.74,	14.03,	14.62,	13.67,	1694,	1686
120,	8131,	7752,	8035,	8341,	8935,	8486,	8576,	8429,	8374,	8281,	8980,	8833,	8375,	9015,	15.13,	14.09,	14.87,	1.73,	13.48,	2.18,	2.24,	12.28,	12.19,	12.40,	14.74,	14.03,	14.58,	13.67,	1695,	1685
121,	8133,	7753,	8037,	8344,	8934,	8501,	8603,	8435,	8371,	8290,	8969,	8817,	8376,	9004,	15.13,	14.09,	14.87,	1.73,	13.48,	2.18,	2.24,	12.28,	12.19,	12.40,	14.74,	14.03,	14.58,	13.67,	1695,	1686
122,	8132,	7754,	8035,	8341,	8946,	8493,	8602,	8404,	8341,	8281,	8962,	8815,	8367,	8997,	15.13,	14.09,	14.87,	1.73,	13.48,	2.18,	2.24,	12.28,	12.19,	12.40,	14.73,	14.03,	14.58,	13.67,	1695,	1686
123,	8150,	7766,	8056,	8334,	8943,	8464,	8556,	8365,	8325,	8269,	8967,	8836,	8374,	9014,	15.13,	14.09,	14.87,	1.73,	13.48,	2.18,	2.24,	12.28,	12.19,	12.40,	14.73,	13.99,	14.58,	13.67,	1696,	1685
124,	8169,	7781,	8096,	8357,	8963,	8463,	8544,	8390,	8358,	8289,	8991,	8865,	8404,	9043,	15.13,	14.09,	14.87,	1.73,	13.48,	2.18,	2.24,	12.28,	12.19,	12.40,	14.73,	13.99,	14.58,	13.67,	1696,	1685
125,	8173,	7785,	8108,	8378,	8981,	8492,	8599,	8433,	8381,	8280,	9005,	8880,	8413,	9053,	15.13,	14.09,	14.87,	1.73,	13.48,	2.18,	2.24,	12.28,	12.19,	12.40,	14.73,	13.99,	14.58,	13.67,	1696,	1686
126,	8175,	7781,	8103,	8356,	8950,	8495,	8612,	8424,	8360,	8248,	9000,	8880,	8401,	9041,	15.13,	14.09,	14.87,	1.73,	13.48,	2.18,	2.24,	12.28,	12.19,	12.40,	14.70,	13.99,	14.58,	13.67,	1697,	1684
127,	8185,	7779,	8117,	8352,	8942,	8478,	8565,	8400,	8350,	8278,	9003,	8878,	8408,	9042,	15.13,	14.09,	14.87,	1.73,	13.48,	2.18,	2.24,	12.28,	12.19,	12.40,	14.70,	14.00,	14.58,	13.67,	1696,	1685
0,	8172,	7783,	8125,	8378,	8960,	8505,	8612,	8417,	8354,	8291,	8990,	8882,	8402,	9051,	15.11,	14.09,	14.87,	1.73,	13.48,	2.18,	2.24,	12.28,	12.19,	12.40,	14.70,	14.00,	14.58,	13.67,	1696,	1684
1,	8128,	7752,	8092,	8342,	8911,	8448,	8529,	8381,	8326,	8253,	8953,	8838,	8362,	9005,	15.11,	14.06,	14.87,	1.73,	13.48,	2.18,	2.24,	12.28,	12.19,	12.40,	14.70,	14.00,	14.58,	13.67,	1697,	1685
2,	8087,	7713,	8053,	8318,	8910,	8412,	8461,	8320,	8276,	8214,	8908,	8792,	8320,	8959,	15.11,	14.06,	14.89,	1.73,	13.48,	2.18,	2.24,	12.28,	12.19,	12.40,	14.70,	14.00,	14.58,	13.67,	1698,	1684
3,	8073,	7692,	8027,	8285,	8912,	8435,	8503,	8296,	8242,	8164,	8864,	8758,	8284,	8937,	15.11,	14.06,	14.89,	1.82,	13.48,	2.18,	2.24,	12.28,	12.19,	12.40,	14.70,	14.00,	14.58,	13.67,	1698,	1686
4,	8060,	7674,	8010,	8240,	8876,	8438,	8517,	8318,	8258,	8144,	8828,	8731,	8260,	8924,	15.11,	14.06,	14.89,	1.82,	13.47,	2.18,	2.24,	12.28,	12.19,	12.40,	14.70,	14.00,	14.58,	13.67,	1697,	1684
5,	8066,	7669,	8020,	8248,	8883,	8428,	8498,	8344,	8287,	8177,	8838,	8743,	8272,	8939,	15.11,	14.06,	14.89,	1.82,	13.47,	2.16,	2.24,	12.28,	12.19,	12.40,	14.70,	14.00,	14.58,	13.67,	1696,	1686
6,	8126,	7719,	8086,	8319,	8926,	8455,	8550,	8384,	8323,	8237,	8917,	8812,	8337,	9000,	15.11,	14.06,	14.89,	1.82,	13.47,	2.16,	2.22,	12.27,	12.19,	12.40,	14.70,	14.00,	14.58,	13.67,	1696,	1685
7,	8177,	7779,	8140,	8366,	8940,	8488,	8600,	8426,	8373,	8283,	8985,	8865,	8392,	9042,	15.11,	14.06,	14.89,	1.82,	13.47,	2.16,	2.22,	12.27,	12.19,	12.40,	14.70,	14.00,	14.58,	13.67,	1696,	1685
8,	8174,	7794,	8138,	8371,	8959,	8495,	8580,	8430,	8397,	8313,	8989,	8862,	8400,	9039,	15.11,	14.06,	14.89,	1.82,	13.47,	2.16,	2.22,	12.27,	12.15,	12.40,	14.70,	14.00,	14.58,	13.67,	1696,	1684
9,	8155,	7785,	8132,	8380,	8986,	8483,	8558,	8403,	8376,	8317,	8967,	8850,	8383,	9029,	15.11,	14.06,	14.89,	1.82,	13.47,	2.16,	2.22,	12.27,	12.15,	12.41,	14.70,	14.00,	14.58,	13.67,	1694,	1685
10,	8155,	7768,	8128,	8366,	8982,	8485,	8587,	8392,	8357,	8292,	8964,	8846,	8375,	9024,	15.11,	14.06,	14.89,	1.82,	13.47,	2.16,	2.22,	12.27,	12.15,	12.41,	14.74,	14.00,	14.58,	13.67,	1695,	1683
11,	8162,	7761,	8126,	8336,	8966,	8516,	8621,	8416,	8377,	8289,	8973,	8849,	8390,	9025,	15.11,	14.06,	14.89,	1.82,	13.47,	2.16,	2.22,	12.27,	12.15,	12.41,	14.74,	14.00,	14.58,	13.67,	1693,	1683
12,	8149,	7771,	8132,	8351,	8958,	8505,	8586,	8415,	8383,	8283,	8965,	8845,	8392,	9022,	15.11,	14.06,	14.89,	1.82,	13.47,	2.16,	2.22,	12.27,	12.15,	12.41,	14.74,	14.00,	14.61,	13.67,	1694,	1683
13,	8123,	7764,	8126,	8376,	8940,	8442,	8522,	8358,	8331,	8237,	8938,	8828,	8357,	8996,	15.11,	14.06,	14.89,	1.82,	13.47,	2.16,	2.22,	12.27,	12.15,	12.41,	14.74,	14.00,	14.61,	13.66,	1694,	1682
14,	8124,	7750,	8133,	8383,	8931,	8421,	8510,	8333,	8298,	8218,	8930,	8835,	8337,	8987,	15.11,	14.06,	14.89,	1.82,	13.47,	2.16,	2.22,	12.27,	12.15,	12.41,	14.73,	14.00,	14.61,	13.66,	1693,	1685
15,	8158,	7782,	8179,	8413,	8946,	8465,	8544,	8373,	8334,	8256,	8960,	8881,	8374,	9028,	15.11,	14.06,	14.89,	1.82,	13.47,	2.16,	2.22,	12.27,	12.15,	12.41,	14.73,	13.99,	14.61,	13.66,	1695,	1685
16,	8184,	7818,	8208,	8442,	8958,	8491,	8565,	8383,	8353,	8281,	8986,	8910,	8401,	9057,	15.11,	14.06,	14.89,	1.82,	13.47,	2.16,	2.22,	12.27,	12.15,	12.41,	14.73,	13.99,	14.61,	13.66,	1695,	1686
17,	8194,	7812,	8212,	8438,	8969,	8482,	8555,	8359,	8334,	8278,	8990,	8908,	8390,	9054,	15.11,	14.06,	14.89,	1.82,	13.47,	2.16,	2.22,	12.27,	12.15,	12.41,	14.73,	13.99,	14.61,	13.66,	1696,	1686
18,	8201,	7808,	8226,	8438,	8987,	8489,	8553,	8368,	8337,	8268,	8985,	8914,	8396,	9061,	15.11,	14.06,	14.89,	1.82,	13.47,	2.16,	2.22,	12.27,	12.15,	12.41,	14.73,	13.99,	14.61,	13.66,	1695,	1686
19,	8200,	7819,	8222,	8444,	8997,	8517,	8594,	8387,	8356,	8253,	8977,	8916,	8406,	9067,	15.11,	14.06,	14.89,	1.82,	13.47,	2.16,	2.22,	12.27,	12.15,	12.41,	14.73,	13.99,	14.61,	13.66,	1696,	1686
20,	8195,	7815,	8200,	8428,	8980,	8521,	8624,	8390,	8362,	8260,	8967,	8895,	8392,	9054,	15.11,	14.06,	14.89,	1.82,	13.47,	2.16,	2.22,	12.27,	12.15,	12.41,	14.73,	13.99,	14.61,	13.66,	1696,	1686
21,	8179,	7788,	8183,	8403,	8946,	8482,	8581,	8392,	8352,	8259,	8948,	8866,	8372,	9029,	15.11,	14.06,	14.89,	1.82,	13.47,	2.16,	2.22,	12.27,	12.15,	12.41,	14.73,	13.99,	14.61,	13.66,	1697,	1686
22,	8157,	7772,	8178,	8392,	8943,	8459,	8547,	8392,	8342,	8224,	8937,	8848,	8357,	9009,	15.11,	14.06,	14.89,	1.82,	13.47,	2.16,	2.22,	12.27,	12.15,	12.41,	14.73,	13.99,	14.61,	13.66,	1697,	1687
23,	8160,	7779,	8181,	8391,	8950,	8477,	8565,	8390,	8339,	8210,	8942,	8840,	8348,	9004,	15.11,	14.06,	14.89,	1.82,	13.47,	2.16,	2.22,	12.27,	12.15,	12.41,	14.73,	13.99,	14.61,	13.66,	1698,	1686
24,	8157,	7768,	8161,	8378,	8927,	8461,	8548,	8383,	8326,	8223,	8928,	8824,	8337,	8994,	15.11,	14.06,	14.89,	1.82,	13.47,	2.16,	2.22,	12.27,	12.15,	12.41,	14.73,	13.99,	14.61,	13.66,	1699,	1686
25,	8128,	7737,	8130,	8355,	8906,	8423,	8511,	8370,	8308,	8225,	8908,	8808,	8331,	8982,	15.11,	14.06,	14.89,	1.82,	13.47,	2.16,	2.22,	12.27,	12.15,	12.41,	14.73,	13.99,	14.61,	13.66,	1698,	1685
26,	8132,	7740,	8144,	8365,	8929,	8448,	8547,	8385,	8320,	8229,	8930,	8824,	8348,	8998,	15.11,	14.06,	14.89,	1.82,	13.47,	2.16,	2.22,	12.27,	12.15,	12.41,	14.73,	13.99,	14.61,	13.66,	1698,	1687
27,	8163,	7767,	8177,	8392,	8958,	8504,	8603,	8428,	8346,	8249,	8971,	8853,	8383,	9026,	15.11,	14.06,	14.89,	1.82,	13.47,	2.16,	2.22,	12.27,	12.15,	12.41,	14.73,	13.99,	14.61,	13.66,	1698,	1686
28,	8147,	7756,	8159,	8385,	8938,	8487,	8568,	8416,	8337,	8240,	8954,	8837,	8373,	9011,	15.11,	14.06,	14.89,	1.82,	13.47,	2.16,	2.22,	12.27,	12.15,	12.41,	14.73,	13.99,	14.61,	13.66,	1697,	1688
29,	8115,	7728,	8128,	8357,	8904,	8449,	8498,	8346,	8299,	8200,	8908,	8793,	8321,	8971,	15.11,	14.06,	14.89,	1.82,	13.47,	2.16,	2.22,	12.27,	12.15,	12.41,	14.73,	13.99,	14.61,	13.66,	1698,	1687
30,	8125,	7732,	8131,	8356,	8911,	8477,	8518,	8340,	8301,	8170,	8901,	8783,	8307,	8966,	15.11,	14.06,	14.89,	1.82,	13.47,	2.16,	2.22,	12.27,	12.15,	12.41,	14.73,	13.99,	14.61,	13.66,	1696,	1688
31,	8121,	7745,	8128,	8366,	8938,	8500,	8555,	8376,	8322,	8162,	8900,	8797,	8321,	8970,	15.11,	14.06,	14.89,	1.82,	13.47,	2.16,	2.22,	12.27,	12.15,	12.41,	14.73,	13.99,	14.61,	13.66,	1698,	1688
32,	8099,	7740,	8117,	8362,	8943,	8481,	8527,	8342,	8295,	8176,	8881,	8790,	8319,	8960,	15.11,	14.06,	14.89,	1.82,	13.47,	2.16,	2.22,	12.27,	12.15,	12.41,	14.73,	13.99,	14.61,	13.66,	1696,	1686
33,	8108,	7736,	8127,	8362,	8917,	8476,	8505,	8293,	8269,	8196,	8884,	8782,	8310,	8956,	15.11,	14.06,	14.89,	1.82,	13.47,	2.16,	2.22,	12.27,	12.15,	12.41,	14.73,	13.99,	14.61,	13.66,	1696,	1689
34,	8136,	7749,	8151,	8376,	8907,	8482,	8514,	8321,	8310,	8212,	8908,	8800,	8323,	8971,	15.11,	14.06,	14.89,	1.82,	13.47,	2.16,	2.22,	12.27,	12.15,	12.41,	14.73,	13.99,	14.61,	13.66,	1696,	1687
35,	8161,	7767,	8173,	8397,	8934,	8463,	8505,	8362,	8349,	8228,	8926,	8825,	8355,	8999,	15.11,	14.06,	14.89,	1.82,	13.47,	2.16,	2.22,	12.27,	12.15,	12.41,	14.73,	13.99,	14.61,	13.66,	1696,	1687
36,	8178,	7777,	8190,	8409,	8949,	8452,	8493,	8357,	8335,	8246,	8947,	8846,	8378,	9023,	15.11,	14.06,	14.89,	1.82,	13.47,	2.16,	2.22,	12.27,	12.15,	12.41,	14.73,	13.99,	14.61,	13.66,	1696,	1687
37,	8196,	7785,	8204,	8413,	8941,	8472,	8520,	8367,	8344,	8270,	8970,	8868,	8395,	9043,	15.11,	14.06,	14.89,	1.82,	13.47,	2.16,	2.22,	12.27,	12.15,	12.41,	14.73,	13.99,	14.61,	13.66,	1695,	1687
38,	8227,	7809,	8235,	8432,	8960,	8500,	8563,	8423,	8398,	8292,	8994,	8897,	8427,	9077,	15.11,	14.06,	14.89,	1.82,	13.47,	2.16,	2.22,	12.27,	12.15,	12.41,	14.73,	13.99,	14.61,	13.66,	1695,	1687
39,	8263,	7835,	8272,	8453,	8992,	8530,	8604,	8467,	8427,	8304,	9026,	8929,	8469,	9119,	15.11,	14.06,	14.89,	1.82,	13.47,	2.16,	2.22,	12.27,	12.15,	12.41,	14.73,	13.99,	14.61,	13.66,	1694,	1687
40,	8261,	7829,	8270,	8447,	8988,	8538,	8615,	8450,	8410,	8314,	9029,	8938,	8474,	9121,	15.11,	14.06,	14.89,	1.82,	13.47,	2.16,	2.22,	12.27,	12.15,	12.41,	14.73,	13.99,	14.61,	13.66,	1696,	1686
41,	8226,	7808,	8240,	8431,	8966,	8503,	8581,	8425,	8394,	8329,	9006,	8921,	8448,	9093,	15.11,	14.06,	14.89,	1.82,	13.47,	2.16,	2.22,	12.27,	12.15,	12.41,	14.73,	13.99,	14.61,	13.66,	1694,	1687
42,	8221,	7809,	8241,	8434,	8951,	8490,	8569,	8446,	8401,	8335,	9009,	8921,	8446,	9094,	15.11,	14.06,	14.89,	1.82,	13.47,	2.16,	2.22,	12.27,	12.15,	12.41,	14.73,	13.99,	14.61,	13.66,	1695,	1689
43,	8252,	7827,	8271,	8451,	8951,	8519,	8586,	8451,	8411,	8339,	9035,	8946,	8472,	9121,	15.11,	14.06,	14.89,	1.82,	13.47,	2.16,	2.22,	12.27,	12.15,	12.41,	14.73,	13.99,	14.61,	13.66,	1696,	1688
44,	8263,	7829,	8276,	8455,	8973,	8516,	8568,	8409,	8405,	8329,	9036,	8949,	8475,	9120,	15.11,	14.06,	14.89,	1.82,	13.47,	2.16,	2.22,	12.27,	12.15,	12.41,	14.73,	13.99,	14.61,	13.66,	1696,	1688
45,	8244,	7821,	8258,	8450,	8984,	8485,	8543,	8401,	8395,	8287,	9019,	8935,	8454,	9108,	15.11,	14.06,	14.89,	1.82,	13.47,	2.16,	2.22,	12.27,	12.15,	12.41,	14.73,	13.99,	14.61,	13.66,	1697,	1685
46,	8250,	7840,	8271,	8470,	8999,	8524,	8592,	8445,	8404,	8297,	9030,	8943,	8470,	9131,	15.11,	14.06,	14.89,	1.82,	13.47,	2.16,	2.22,	12.27,	12.15,	12.41,	14.73,	13.99,	14.61,	13.66,	1697,	1685
47,	8273,	7869,	8290,	8502,	9030,	8589,	8658,	8467,	8427,	8362,	9054,	8958,	8495,	9146,	15.11,	14.06,	14.89,	1.82,	13.47,	2.16,	2.22,	12.27,	12.15,	12.41,	14.73,	13.99,	14.61,	13.66,	1697,	1684
48,	8250,	7858,	8264,	8488,	9028,	8576,	8648,	8444,	8416,	8350,	9028,	8939,	8466,	9107,	15.11,	14.06,	14.89,	1.82,	13.47,	2.16,	2.22,	12.27,	12.15,	12.41,	14.73,	13.99,	14.61,	13.66,	1697,	1685
49,	8210,	7830,	8229,	8448,	8995,	8535,	8607,	8432,	8378,	8286,	8975,	8907,	8426,	9073,	15.11,	14.06,	14.89,	1.82,	13.47,	2.16,	2.22,	12.27,	12.15,	12.41,	14.73,	13.99,	14.61,	13.66,	1698,	1684
50,	8217,	7827,	8231,	8447,	8982,	8525,	8583,	8439,	8376,	8300,	8970,	8905,	8431,	9080,	15.11,	14.06,	14.89,	1.82,	13.47,	2.16,	2.22,	12.27,	12.15,	12.41,	14.73,	13.99,	14.61,	13.66,	1697,	1685
51,	8223,	7825,	8232,	8457,	8966,	8509,	8565,	8430,	8393,	8321,	8988,	8900,	8442,	9081,	15.11,	14.06,	14.89,	1.82,	13.47,	2.16,	2.22,	12.27,	12.15,	12.41,	14.73,	13.99,	14.61,	13.66,	1697,	1685
52,	8195,	7805,	8217,	8437,	8951,	8489,	8559,	8401,	8375,	8274,	8970,	8876,	8427,	9057,	15.11,	14.06,	14.89,	1.82,	13.47,	2.16,	2.22,	12.27,	12.15,	12.41,	14.73,	13.99,	14.61,	13.66,	1696,	1685
53,	8193,	7809,	8224,	8434,	8970,	8499,	8569,	8391,	8357,	8268,	8956,	8881,	8422,	9052,	15.11,	14.06,	14.89,	1.82,	13.47,	2.16,	2.22,	12.27,	12.15,	12.41,	14.73,	13.99,	14.61,	13.66,	1696,	1687
54,	8229,	7842,	8250,	8465,	8993,	8527,	8569,	8408,	8376,	8317,	8983,	8921,	8441,	9075,	15.11,	14.06,	14.89,	1.82,	13.47,	2.16,	2.22,	12.27,	12.15,	12.41,	14.73,	13.99,	14.61,	13.66,	1696,	1685
55,	8232,	7840,	8248,	8459,	8979,	8524,	8547,	8410,	8387,	8323,	8988,	8918,	8444,	9079,	15.11,	14.06,	14.89,	1.82,	13.47,	2.16,	2.22,	12.27,	12.15,	12.41,	14.73,	13.99,	14.61,	13.66,	1696,	1687
56,	8202,	7800,	8228,	8428,	8961,	8498,	8536,	8396,	8368,	8286,	8957,	8880,	8412,	9054,	15.11,	14.06,	14.89,	1.82,	13.47,	2.16,	2.22,	12.27,	12.15,	12.41,	14.73,	13.99,	14.61,	13.66,	1697,	1686
57,	8205,	7810,	8244,	8448,	8985,	8512,	8586,	8416,	8385,	8285,	8969,	8892,	8418,	9058,	15.11,	14.06,	14.89,	1.82,	13.47,	2.16,	2.22,	12.27,	12.15,	12.41,	14.73,	13.99,	14.61,	13.66,	1695,	1686
58,	8234,	7848,	8268,	8479,	9015,	8554,	8643,	8468,	8427,	8313,	9011,	8930,	8457,	9090,	15.11,	14.06,	14.89,	1.82,	13.47,	2.16,	2.22,	12.27,	12.15,	12.41,	14.73,	13.99,	14.61,	13.66,	1696,	1687
59,	8224,	7829,	8246,	8451,	8988,	8541,	8611,	8464,	8414,	8306,	8986,	8910,	8438,	9073,	15.11,	14.06,	14.89,	1.82,	13.47,	2.16,	2.22,	12.27,	12.15,	12.41,	14.73,	13.99,	14.61,	13.66,	1695,	1687
60,	8191,	7797,	8223,	8423,	8959,	8496,	8550,	8410,	8367,	8273,	8938,	8872,	8392,	9031,	15.11,	14.06,	14.89,	1.82,	13.47,	2.16,	2.22,	12.27,	12.15,	12.41,	14.73,	13.99,	14.61,	13.66,	1696,	1688
61,	8190,	7808,	8234,	8440,	8984,	8515,	8582,	8394,	8355,	8274,	8952,	8879,	8403,	9039,	15.11,	14.06,	14.89,	1.82,	13.47,	2.16,	2.22,	12.27,	12.15,	12.41,	14.73,	13.99,	14.61,	13.66,	1695,	1687
62,	8198,	7814,	8234,	8443,	8992,	8533,	8617,	8402,	8364,	8288,	8969,	8884,	8416,	9048,	15.11,	14.06,	14.89,	1.82,	13.47,	2.16,	2.22,	12.27,	12.15,	12.41,	14.73,	13.99,	14.61,	13.66,	1696,	1687
63,	8193,	7813,	8230,	8434,	8970,	8512,	8586,	8407,	8370,	8288,	8959,	8880,	8401,	9035,	15.11,	14.06,	14.89,	1.82,	13.47,	2.16,	2.22,	12.27,	12.15,	12.41,	14.73,	13.99,	14.61,	13.66,	1695,	1686
64,	8191,	7829,	8238,	8447,	8981,	8524,	8578,	8421,	8378,	8287,	8968,	8887,	8410,	9040,	15.14,	14.06,	14.89,	1.82,	13.47,	2.16,	2.22,	12.27,	12.15,	12.41,	14.73,	13.99,	14.61,	13.66,	1695,	1687
65,	8192,	7828,	8241,	8456,	8982,	8534,	8592,	8426,	8383,	8275,	8975,	8882,	8419,	9047,	15.14,	14.04,	14.89,	1.82,	13.47,	2.16,	2.22,	12.27,	12.15,	12.41,	14.73,	13.99,	14.61,	13.66,	1696,	1686
66,	8202,	7827,	8254,	8458,	8979,	8536,	8621,	8462,	8415,	8286,	8973,	8892,	8425,	9053,	15.14,	14.04,	14.89,	1.82,	13.47,	2.16,	2.22,	12.27,	12.15,	12.41,	14.73,	13.99,	14.61,	13.66,	1695,	1688
67,	8212,	7840,	8266,	8460,	9003,	8575,	8671,	8497,	8439,	8322,	8986,	8911,	8442,	9063,	15.14,	14.04,	14.89,	1.82,	13.47,	2.16,	2.22,	12.27,	12.15,	12.41,	14.73,	13.99,	14.61,	13.66,	1696,	1687
68,	8193,	7821,	8251,	8443,	8997,	8575,	8646,	8449,	8394,	8314,	8976,	8893,	8426,	9044,	15.14,	14.04,	14.89,	1.82,	13.48,	2.16,	2.22,	12.27,	12.15,	12.41,	14.73,	13.99,	14.61,	13.66,	1695,	1688
69,	8177,	7790,	8236,	8421,	8958,	8509,	8557,	8404,	8366,	8280,	8945,	8869,	8398,	9024,	15.14,	14.04,	14.89,	1.82,	13.48,	2.15,	2.22,	12.27,	12.15,	12.41,	14.73,	13.99,	14.61,	13.66,	1696,	1689
70,	8186,	7791,	8240,	8422,	8955,	8484,	8541,	8438,	8399,	8279,	8945,	8877,	8405,	9043,	15.14,	14.04,	14.89,	1.82,	13.48,	2.15,	2.21,	12.27,	12.15,	12.41,	14.73,	13.99,	14.61,	13.66,	1695,	1688
71,	8196,	7808,	8247,	8432,	8979,	8514,	8586,	8448,	8413,	8309,	8966,	8897,	8426,	9065,	15.14,	14.04,	14.89,	1.82,	13.48,	2.15,	2.21,	12.30,	12.15,	12.41,	14.73,	13.99,	14.61,	13.66,	1695,	1688
72,	8194,	7813,	8257,	8442,	8988,	8526,	8577,	8412,	8396,	8318,	8977,	8907,	8432,	9068,	15.14,	14.04,	14.89,	1.82,	13.48,	2.15,	2.21,	12.30,	12.16,	12.41,	14.73,	13.99,	14.61,	13.66,	1695,	1687
73,	8195,	7811,	8260,	8446,	8980,	8511,	8532,	8400,	8389,	8294,	8971,	8894,	8429,	9065,	15.14,	14.04,	14.89,	1.82,	13.48,	2.15,	2.21,	12.30,	12.16,	12.39,	14.73,	13.99,	14.61,	13.66,	1695,	1688
74,	8207,	7815,	8258,	8441,	8962,	8494,	8529,	8409,	8386,	8280,	8962,	8878,	8423,	9062,	15.14,	14.04,	14.89,	1.82,	13.48,	2.15,	2.21,	12.30,	12.16,	12.39,	14.71,	13.99,	14.61,	13.66,	1695,	1687
75,	8223,	7830,	8280,	8453,	8968,	8515,	8580,	8428,	8392,	8301,	8970,	8899,	8427,	9070,	15.14,	14.04,	14.89,	1.82,	13.48,	2.15,	2.21,	12.30,	12.16,	12.39,	14.71,	13.99,	14.61,	13.66,	1694,	1688
76,	8228,	7833,	8293,	8462,	8998,	8552,	8622,	8439,	8400,	8306,	8974,	8917,	8430,	9077,	15.14,	14.04,	14.89,	1.82,	13.48,	2.15,	2.21,	12.30,	12.16,	12.39,	14.71,	13.99,	14.61,	13.66,	1694,	1687
77,	8215,	7818,	8273,	8444,	8995,	8537,	8608,	8410,	8380,	8278,	8956,	8893,	8411,	9058,	15.14,	14.04,	14.89,	1.82,	13.48,	2.15,	2.21,	12.30,	12.16,	12.39,	14.71,	13.99,	14.61,	13.63,	1694,	1687
78,	8196,	7805,	8256,	8431,	8956,	8499,	8564,	8370,	8352,	8271,	8938,	8875,	8397,	9034,	15.14,	14.04,	14.89,	1.82,	13.48,	2.15,	2.21,	12.30,	12.16,	12.39,	14.70,	13.99,	14.61,	13.63,	1693,	1686
79,	8186,	7799,	8264,	8436,	8950,	8499,	8543,	8378,	8360,	8285,	8940,	8885,	8404,	9033,	15.14,	14.04,	14.89,	1.82,	13.48,	2.15,	2.21,	12.30,	12.16,	12.39,	14.70,	14.03,	14.61,	13.63,	1693,	1686
80,	8194,	7803,	8280,	8441,	8976,	8509,	8555,	8415,	8387,	8285,	8946,	8907,	8408,	9049,	15.14,	14.04,	14.89,	1.82,	13.48,	2.15,	2.21,	12.30,	12.16,	12.39,	14.70,	14.03,	14.62,	13.63,	1693,	1686
81,	8205,	7819,	8281,	8450,	8979,	8520,	8578,	8410,	8373,	8281,	8944,	8906,	8403,	9054,	15.14,	14.04,	14.89,	1.82,	13.48,	2.15,	2.21,	12.30,	12.16,	12.39,	14.70,	14.03,	14.62,	13.66,	1694,	1686
82,	8200,	7826,	8278,	8456,	8973,	8533,	8580,	8382,	8341,	8276,	8937,	8887,	8399,	9041,	15.14,	14.04,	14.89,	1.82,	13.48,	2.15,	2.21,	12.30,	12.16,	12.39,	14.70,	14.03,	14.62,	13.66,	1694,	1687
83,	8195,	7816,	8283,	8450,	8986,	8529,	8568,	8386,	8354,	8261,	8936,	8890,	8401,	9033,	15.14,	14.04,	14.89,	1.82,	13.48,	2.15,	2.21,	12.30,	12.16,	12.39,	14.70,	13.99,	14.62,	13.66,	1694,	1687
84,	8195,	7809,	8280,	8448,	8988,	8519,	8569,	8406,	8380,	8261,	8933,	8898,	8396,	9032,	15.14,	14.04,	14.89,	1.82,	13.48,	2.15,	2.21,	12.30,	12.16,	12.39,	14.70,	13.99,	14.59,	13.66,	1695,	1686
85,	8197,	7812,	8278,	8453,	8979,	8522,	8590,	8415,	8379,	8280,	8930,	8894,	8390,	9034,	15.14,	14.04,	14.89,	1.82,	13.48,	2.15,	2.21,	12.30,	12.16,	12.39,	14.70,	13.99,	14.59,	13.66,	1695,	1688
86,	8199,	7816,	8288,	8458,	8986,	8532,	8612,	8424,	8382,	8287,	8940,	8900,	8402,	9047,	15.14,	14.04,	14.89,	1.82,	13.48,	2.15,	2.21,	12.30,	12.16,	12.39,	14.70,	13.99,	14.59,	13.66,	1697,	1687
87,	8195,	7814,	8285,	8449,	8978,	8526,	8599,	8417,	8385,	8281,	8947,	8910,	8412,	9052,	15.14,	14.04,	14.89,	1.82,	13.48,	2.15,	2.21,	12.30,	12.16,	12.39,	14.70,	14.03,	14.59,	13.66,	1695,	1687
88,	8191,	7809,	8275,	8438,	8960,	8517,	8571,	8402,	8372,	8278,	8938,	8901,	8398,	9037,	15.14,	14.04,	14.89,	1.82,	13.48,	2.15,	2.21,	12.30,	12.16,	12.39,	14.70,	14.03,	14.62,	13.66,	1697,	1689
89,	8208,	7824,	8288,	8455,	8980,	8529,	8579,	8413,	8376,	8289,	8939,	8903,	8400,	9047,	15.14,	14.04,	14.89,	1.82,	13.48,	2.15,	2.21,	12.30,	12.16,	12.39,	14.70,	14.03,	14.62,	13.67,	1696,	1688
90,	8222,	7846,	8302,	8482,	9013,	8548,	8605,	8437,	8393,	8320,	8955,	8919,	8428,	9075,	15.14,	14.04,	14.89,	1.82,	13.48,	2.15,	2.21,	12.30,	12.16,	12.39,	14.71,	14.03,	14.62,	13.67,	1697,	1690
91,	8208,	7832,	8278,	8470,	9009,	8542,	8613,	8433,	8388,	8315,	8947,	8902,	8427,	9063,	15.14,	14.04,	14.89,	1.82,	13.48,	2.15,	2.21,	12.30,	12.16,	12.39,	14.71,	14.00,	14.62,	13.67,	1698,	1689
92,	8188,	7802,	8250,	8438,	8970,	8509,	8592,	8401,	8378,	8251,	8920,	8876,	8391,	9032,	15.14,	14.04,	14.89,	1.82,	13.48,	2.15,	2.21,	12.30,	12.16,	12.39,	14.71,	14.00,	14.58,	13.67,	1699,	1690
93,	8176,	7798,	8252,	8430,	8943,	8493,	8561,	8373,	8369,	8235,	8911,	8874,	8375,	9024,	15.14,	14.04,	14.89,	1.82,	13.48,	2.15,	2.21,	12.30,	12.16,	12.39,	14.71,	14.00,	14.58,	13.64,	1698,	1689
94,	8173,	7804,	8261,	8435,	8953,	8507,	8544,	8370,	8354,	8285,	8915,	8880,	8377,	9029,	15.14,	14.04,	14.89,	1.82,	13.48,	2.15,	2.21,	12.30,	12.16,	12.39,	14.70,	14.00,	14.58,	13.64,	1698,	1691
95,	8169,	7797,	8248,	8431,	8978,	8518,	8555,	8374,	8347,	8291,	8893,	8860,	8358,	9019,	15.14,	14.04,	14.89,	1.82,	13.48,	2.15,	2.21,	12.30,	12.16,	12.39,	14.70,	14.03,	14.58,	13.64,	1698,	1690
96,	8143,	7772,	8210,	8401,	8960,	8501,	8552,	8355,	8325,	8224,	8848,	8816,	8314,	8983,	15.14,	14.04,	14.89,	1.82,	13.48,	2.15,	2.21,	12.30,	12.16,	12.39,	14.70,	14.03,	14.58,	13.64,	1697,	1692
97,	8090,	7727,	8156,	8344,	8908,	8477,	8529,	8325,	8286,	8161,	8808,	8768,	8275,	8935,	15.14,	14.04,	14.89,	1.82,	13.48,	2.15,	2.21,	12.30,	12.16,	12.39,	14.70,	14.03,	14.58,	13.64,	1698,	1691
98,	8061,	7695,	8121,	8306,	8898,	8488,	8538,	8335,	8286,	8155,	8798,	8749,	8272,	8923,	15.14,	14.04,	14.89,	1.82,	13.48,	2.15,	2.21,	12.30,	12.16,	12.39,	14.73,	14.03,	14.58,	13.64,	1696,	1691
99,	8101,	7721,	8154,	8339,	8937,	8507,	8570,	8385,	8346,	8207,	8849,	8796,	8320,	8975,	15.14,	14.04,	14.89,	1.82,	13.48,	2.15,	2.21,	12.30,	12.16,	12.39,	14.73,	14.01,	14.58,	13.64,	1696,	1691
100,	8188,	7797,	8250,	8428,	8982,	8523,	8587,	8430,	8415,	8285,	8950,	8893,	8412,	9064,	15.14,	14.04,	14.89,	1.82,	13.48,	2.15,	2.21,	12.30,	12.16,	12.39,	14.73,	14.01,	14.62,	13.64,	1696,	1688
101,	8255,	7866,	8325,	8500,	9014,	8554,	8622,	8464,	8452,	8357,	9028,	8961,	8480,	9126,	15.14,	14.04,	14.89,	1.82,	13.48,	2.15,	2.21,	12.30,	12.16,	12.39,	14.73,	14.01,	14.62,	13.66,	1695,	1688
102,	8267,	7883,	8331,	8510,	9030,	8587,	8676,	8500,	8466,	8392,	9025,	8961,	8475,	9120,	15.14,	14.04,	14.89,	1.82,	13.48,	2.15,	2.21,	12.30,	12.16,	12.39,	14.70,	14.01,	14.62,	13.66,	1696,	1686
103,	8246,	7864,	8301,	8487,	9022,	8567,	8650,	8483,	8454,	8374,	8990,	8938,	8442,	9095,	15.14,	14.04,	14.89,	1.82,	13.48,	2.15,	2.21,	12.30,	12.16,	12.39,	14.70,	14.01,	14.62,	13.66,	1695,	1687
104,	8213,	7834,	8273,	8461,	8995,	8502,	8547,	8406,	8407,	8313,	8972,	8916,	8417,	9073,	15.14,	14.04,	14.89,	1.82,	13.48,	2.15,	2.21,	12.30,	12.16,	12.39,	14.70,	14.01,	14.62,	13.66,	1695,	1687
105,	8185,	7810,	8249,	8438,	8965,	8472,	8505,	8364,	8373,	8279,	8951,	8883,	8395,	9041,	15.14,	14.04,	14.89,	1.82,	13.48,	2.15,	2.21,	12.30,	12.16,	12.39,	14.70,	14.01,	14.62,	13.64,	1695,	1688
106,	8180,	7797,	8243,	8424,	8952,	8486,	8534,	8371,	8375,	8290,	8941,	8871,	8382,	9025,	15.14,	14.04,	14.89,	1.82,	13.48,	2.15,	2.21,	12.30,	12.16,	12.39,	14.73,	14.01,	14.62,	13.64,	1695,	1687
107,	8196,	7809,	8271,	8437,	8974,	8511,	8560,	8377,	8390,	8290,	8976,	8907,	8402,	9054,	15.14,	14.04,	14.89,	1.82,	13.48,	2.15,	2.21,	12.30,	12.16,	12.39,	14.73,	13.99,	14.62,	13.64,	1694,	1687
108,	8209,	7831,	8294,	8458,	8997,	8538,	8576,	8407,	8406,	8291,	9016,	8937,	8429,	9082,	15.14,	14.04,	14.89,	1.82,	13.48,	2.15,	2.21,	12.30,	12.16,	12.39,	14.73,	13.99,	14.58,	13.64,	1696,	1686
109,	8198,	7822,	8282,	8453,	8984,	8528,	8571,	8428,	8413,	8319,	8996,	8911,	8422,	9068,	15.14,	14.04,	14.89,	1.82,	13.48,	2.15,	2.21,	12.30,	12.16,	12.39,	14.73,	13.99,	14.58,	13.67,	1695,	1686
110,	8177,	7794,	8260,	8435,	8965,	8494,	8555,	8390,	8398,	8323,	8968,	8883,	8399,	9043,	15.14,	14.04,	14.89,	1.82,	13.48,	2.15,	2.21,	12.30,	12.16,	12.39,	14.74,	13.99,	14.58,	13.67,	1696,	1686
111,	8182,	7802,	8265,	8433,	8974,	8510,	8587,	8385,	8396,	8306,	8984,	8901,	8400,	9053,	15.14,	14.04,	14.89,	1.82,	13.48,	2.15,	2.21,	12.30,	12.16,	12.39,	14.74,	14.03,	14.58,	13.67,	1696,	1686
112,	8194,	7811,	8282,	8430,	8981,	8526,	8590,	8423,	8408,	8319,	8997,	8915,	8413,	9066,	15.14,	14.04,	14.89,	1.82,	13.48,	2.15,	2.21,	12.30,	12.16,	12.39,	14.74,	14.03,	14.61,	13.67,	1696,	1688
113,	8189,	7790,	8270,	8417,	8967,	8493,	8532,	8400,	8388,	8315,	8978,	8891,	8405,	9046,	15.14,	14.04,	14.89,	1.82,	13.48,	2.15,	2.21,	12.30,	12.16,	12.39,	14.74,	14.03,	14.61,	13.63,	1697,	1688
114,	8185,	7788,	8256,	8413,	8962,	8492,	8527,	8368,	8361,	8272,	8965,	8872,	8382,	9031,	15.14,	14.04,	14.89,	1.82,	13.48,	2.15,	2.21,	12.30,	12.16,	12.39,	14.74,	14.03,	14.61,	13.63,	1696,	1689
115,	8184,	7801,	8263,	8416,	8965,	8514,	8554,	8387,	8373,	8265,	8976,	8878,	8377,	9036,	15.14,	14.04,	14.89,	1.82,	13.48,	2.15,	2.21,	12.30,	12.16,	12.39,	14.74,	14.01,	14.61,	13.63,	1697,	1688
116,	8184,	7798,	8271,	8423,	8970,	8504,	8551,	8406,	8391,	8293,	8993,	8884,	8391,	9047,	15.14,	14.04,	14.89,	1.82,	13.48,	2.15,	2.21,	12.30,	12.16,	12.39,	14.74,	14.01,	14.62,	13.63,	1697,	1688
117,	8187,	7804,	8272,	8435,	8980,	8502,	8558,	8406,	8385,	8295,	9006,	8881,	8395,	9050,	15.14,	14.04,	14.89,	1.82,	13.48,	2.15,	2.21,	12.30,	12.16,	12.39,	14.74,	14.01,	14.62,	13.66,	1698,	1687
118,	8190,	7814,	8280,	8435,	8992,	8537,	8598,	8421,	8392,	8287,	9014,	8885,	8385,	9046,	15.14,	14.04,	14.89,	1.82,	13.48,	2.15,	2.21,	12.30,	12.16,	12.39,	14.73,	14.01,	14.62,	13.66,	1697,	1687
119,	8169,	7790,	8270,	8417,	8979,	8535,	8592,	8410,	8396,	8288,	9006,	8880,	8371,	9033,	15.14,	14.04,	14.89,	1.82,	13.48,	2.15,	2.21,	12.30,	12.16,	12.39,	14.73,	13.99,	14.62,	13.66,	1698,	1687
120,	8134,	7767,	8231,	8391,	8950,	8486,	8540,	8363,	8349,	8271,	8981,	8845,	8351,	9009,	15.14,	14.04,	14.89,	1.82,	13.48,	2.15,	2.21,	12.30,	12.16,	12.39,	14.73,	13.99,	14.58,	13.66,	1697,	1687
121,	8119,	7767,	8209,	8376,	8936,	8465,	8513,	8340,	8303,	8219,	8971,	8815,	8337,	8985,	15.14,	14.04,	14.89,	1.82,	13.48,	2.15,	2.21,	12.30,	12.16,	12.39,	14.73,	13.99,	14.58,	13.64,	1698,	1688
122,	8123,	7760,	8210,	8372,	8933,	8474,	8508,	8325,	8299,	8178,	8973,	8810,	8337,	8970,	15.14,	14.04,	14.89,	1.82,	13.48,	2.15,	2.21,	12.30,	12.16,	12.39,	14.70,	13.99,	14.58,	13.64,	1698,	1687
123,	8127,	7759,	8215,	8380,	8939,	8482,	8516,	8332,	8318,	8210,	8972,	8818,	8343,	8975,	15.14,	14.04,	14.89,	1.82,	13.48,	2.15,	2.21,	12.30,	12.16,	12.39,	14.70,	13.99,	14.58,	13.64,	1696,	1689
124,	8132,	7774,	8220,	8391,	8961,	8491,	8541,	8374,	8335,	8266,	8978,	8831,	8352,	8991,	15.14,	14.04,	14.89,	1.82,	13.48,	2.15,	2.21,	12.30,	12.16,	12.39,	14.70,	13.99,	14.59,	13.64,	1697,	1687
125,	8138,	7782,	8229,	8395,	8969,	8522,	8589,	8407,	8347,	8273,	8990,	8843,	8354,	9004,	15.14,	14.04,	14.89,	1.82,	13.48,	2.15,	2.21,	12.30,	12.16,	12.39,	14.70,	13.99,	14.59,	13.64,	1696,	1688
126,	8135,	7778,	8233,	8393,	8956,	8537,	8610,	8420,	8362,	8239,	8989,	8847,	8353,	9001,	15.14,	14.04,	14.89,	1.82,	13.48,	2.15,	2.21,	12.30,	12.16,	12.39,	14.73,	13.99,	14.59,	13.64,	1696,	1688
127,	8135,	7773,	8230,	8393,	8943,	8507,	8563,	8416,	8375,	8215,	8989,	8844,	8358,	9002,	15.14,	14.04,	14.89,	1.82,	13.48,	2.15,	2.21,	12.30,	12.16,	12.39,	14.73,	14.03,	14.59,	13.64,	1695,	1687
0,	8122,	7738,	8198,	8359,	8901,	8452,	8488,	8340,	8340,	8260,	8994,	8819,	8350,	8987,	15.11,	14.04,	14.89,	1.82,	13.48,	2.15,	2.21,	12.30,	12.16,	12.39,	14.73,	14.03,	14.59,	13.64,	1696,	1687
1,	8152,	7771,	8236,	8389,	8928,	8507,	8540,	8405,	8388,	8302,	9031,	8850,	8386,	9012,	15.11,	14.04,	14.89,	1.82,	13.48,	2.15,	2.21,	12.30,	12.16,	12.39,	14.73,	14.03,	14.59,	13.64,	1696,	1686
2,	8197,	7816,	8278,	8432,	8979,	8551,	8585,	8455,	8421,	8323,	9061,	8889,	8418,	9056,	15.11,	14.04,	14.89,	1.82,	13.48,	2.15,	2.21,	12.30,	12.16,	12.39,	14.73,	14.03,	14.59,	13.64,	1695,	1687
3,	8202,	7811,	8281,	8426,	8983,	8549,	8598,	8448,	8412,	8326,	9048,	8886,	8407,	9056,	15.11,	14.04,	14.89,	1.81,	13.48,	2.15,	2.21,	12.30,	12.16,	12.39,	14.73,	14.03,	14.59,	13.64,	1696,	1686
4,	8178,	7788,	8267,	8405,	8956,	8520,	8576,	8425,	8400,	8298,	9040,	8875,	8398,	9033,	15.11,	14.04,	14.89,	1.81,	13.45,	2.15,	2.21,	12.30,	12.16,	12.39,	14.73,	14.03,	14.59,	13.64,	1695,	1686
5,	8192,	7810,	8287,	8429,	8968,	8524,	8581,	8422,	8403,	8299,	9082,	8897,	8428,	9054,	15.11,	14.04,	14.89,	1.81,	13.45,	2.15,	2.21,	12.30,	12.16,	12.39,	14.73,	14.03,	14.59,	13.64,	1695,	1685
6,	8219,	7838,	8311,	8455,	8989,	8543,	8610,	8445,	8422,	8329,	9115,	8922,	8458,	9084,	15.11,	14.04,	14.89,	1.81,	13.45,	2.15,	2.22,	12.30,	12.16,	12.39,	14.73,	14.03,	14.59,	13.64,	1694,	1686
7,	8207,	7824,	8288,	8450,	8977,	8532,	8590,	8451,	8428,	8324,	9087,	8915,	8446,	9063,	15.11,	14.04,	14.89,	1.81,	13.45,	2.15,	2.22,	12.30,	12.16,	12.39,	14.73,	14.03,	14.59,	13.64,	1695,	1686
8,	8185,	7806,	8263,	8429,	8968,	8532,	8580,	8446,	8427,	8318,	9059,	8900,	8427,	9043,	15.11,	14.04,	14.89,	1.81,	13.45,	2.15,	2.22,	12.30,	12.15,	12.39,	14.73,	14.03,	14.59,	13.64,	1695,	1687
9,	8190,	7807,	8274,	8409,	8968,	8545,	8603,	8464,	8431,	8346,	9076,	8906,	8439,	9065,	15.11,	14.04,	14.89,	1.81,	13.45,	2.15,	2.22,	12.30,	12.15,	12.43,	14.73,	14.03,	14.59,	13.64,	1696,	1686
10,	8201,	7827,	8283,	8432,	8975,	8535,	8593,	8455,	8423,	8354,	9097,	8917,	8454,	9081,	15.11,	14.04,	14.89,	1.81,	13.45,	2.15,	2.22,	12.30,	12.15,	12.43,	14.71,	14.03,	14.59,	13.64,	1695,	1686
11,	8190,	7836,	8258,	8460,	8987,	8518,	8567,	8403,	8397,	8323,	9063,	8893,	8429,	9053,	15.11,	14.04,	14.89,	1.81,	13.45,	2.15,	2.22,	12.30,	12.15,	12.43,	14.71,	14.03,	14.59,	13.64,	1696,	1687
12,	8181,	7816,	8243,	8442,	8979,	8528,	8578,	8397,	8387,	8306,	9027,	8860,	8402,	9027,	15.11,	14.04,	14.89,	1.81,	13.45,	2.15,	2.22,	12.30,	12.15,	12.43,	14.71,	14.03,	14.61,	13.64,	1696,	1686
13,	8187,	7812,	8254,	8430,	8970,	8538,	8596,	8426,	8405,	8314,	9049,	8864,	8417,	9033,	15.11,	14.04,	14.89,	1.81,	13.45,	2.15,	2.22,	12.30,	12.15,	12.43,	14.71,	14.03,	14.61,	13.63,	1696,	1687
14,	8196,	7836,	8256,	8459,	8989,	8544,	8605,	8442,	8424,	8331,	9084,	8889,	8445,	9050,	15.11,	14.04,	14.89,	1.81,	13.45,	2.15,	2.22,	12.30,	12.15,	12.43,	14.71,	14.03,	14.61,	13.63,	1697,	1686
15,	8199,	7840,	8245,	8461,	9000,	8552,	8607,	8458,	8430,	8325,	9073,	8886,	8444,	9050,	15.11,	14.04,	14.89,	1.81,	13.45,	2.15,	2.22,	12.30,	12.15,	12.43,	14.71,	14.03,	14.61,	13.63,	1696,	1687
16,	8189,	7819,	8235,	8435,	8984,	8547,	8610,	8470,	8425,	8311,	9043,	8864,	8421,	9033,	15.11,	14.04,	14.89,	1.81,	13.45,	2.15,	2.22,	12.30,	12.15,	12.43,	14.71,	14.03,	14.61,	13.63,	1696,	1687
17,	8174,	7817,	8226,	8427,	8980,	8551,	8647,	8451,	8409,	8318,	9046,	8856,	8410,	9027,	15.11,	14.04,	14.89,	1.81,	13.45,	2.15,	2.22,	12.30,	12.15,	12.43,	14.71,	14.03,	14.61,	13.63,	1696,	1687
18,	8159,	7810,	8210,	8416,	8981,	8542,	8633,	8406,	8378,	8301,	9053,	8853,	8408,	9020,	15.11,	14.04,	14.89,	1.81,	13.45,	2.15,	2.22,	12.30,	12.15,	12.43,	14.71,	14.03,	14.61,	13.63,	1696,	1686
19,	8152,	7792,	8202,	8402,	8967,	8500,	8551,	8395,	8372,	8279,	9041,	8844,	8399,	9003,	15.11,	14.04,	14.89,	1.81,	13.45,	2.15,	2.22,	12.30,	12.15,	12.43,	14.71,	14.03,	14.61,	13.63,	1695,	1686
20,	8155,	7796,	8208,	8406,	8959,	8495,	8539,	8426,	8397,	8292,	9036,	8844,	8398,	8999,	15.11,	14.04,	14.89,	1.81,	13.45,	2.15,	2.22,	12.30,	12.15,	12.43,	14.71,	14.03,	14.61,	13.63,	1696,	1685
21,	8163,	7809,	8210,	8416,	8965,	8531,	8593,	8431,	8392,	8304,	9043,	8849,	8400,	9006,	15.11,	14.04,	14.89,	1.81,	13.45,	2.15,	2.22,	12.30,	12.15,	12.43,	14.71,	14.03,	14.61,	13.63,	1696,	1685
22,	8154,	7798,	8200,	8412,	8960,	8513,	8573,	8405,	8365,	8283,	9043,	8835,	8388,	8998,	15.11,	14.04,	14.89,	1.81,	13.45,	2.15,	2.22,	12.30,	12.15,	12.43,	14.71,	14.03,	14.61,	13.63,	1696,	1686
23,	8133,	7779,	8190,	8400,	8938,	8474,	8536,	8408,	8370,	8261,	9034,	8826,	8381,	8991,	15.11,	14.04,	14.89,	1.81,	13.45,	2.15,	2.22,	12.30,	12.15,	12.43,	14.71,	14.03,	14.61,	13.63,	1696,	1684
24,	8127,	7776,	8184,	8396,	8930,	8500,	8572,	8430,	8386,	8248,	9031,	8833,	8387,	8998,	15.11,	14.04,	14.89,	1.81,	13.45,	2.15,	2.22,	12.30,	12.15,	12.43,	14.71,	14.03,	14.61,	13.63,	1695,	1685
25,	8127,	7777,	8184,	8398,	8943,	8532,	8592,	8425,	8374,	8257,	9029,	8829,	8379,	8986,	15.11,	14.04,	14.89,	1.81,	13.45,	2.15,	2.22,	12.30,	12.15,	12.43,	14.71,	14.03,	14.61,	13.63,	1696,	1684
26,	8135,	7781,	8197,	8405,	8967,	8532,	8584,	8433,	8381,	8287,	9041,	8824,	8378,	8981,	15.11,	14.04,	14.89,	1.81,	13.45,	2.15,	2.22,	12.30,	12.15,	12.43,	14.71,	14.03,	14.61,	13.63,	1695,	1685
27,	8144,	7789,	8202,	8404,	8972,	8521,	8581,	8455,	8407,	8287,	9046,	8830,	8391,	8993,	15.11,	14.04,	14.89,	1.81,	13.45,	2.15,	2.22,	12.30,	12.15,	12.43,	14.71,	14.03,	14.61,	13.63,	1696,	1685
28,	8144,	7792,	8203,	8404,	8961,	8516,	8563,	8427,	8403,	8277,	9034,	8835,	8391,	9000,	15.11,	14.04,	14.89,	1.81,	13.45,	2.15,	2.22,	12.30,	12.15,	12.43,	14.71,	14.03,	14.61,	13.63,	1696,	1684
29,	8156,	7805,	8228,	8429,	8974,	8533,	8570,	8403,	8392,	8296,	9052,	8851,	8400,	9016,	15.11,	14.04,	14.89,	1.81,	13.45,	2.15,	2.22,	12.30,	12.15,	12.43,	14.71,	14.03,	14.61,	13.63,	1696,	1685
30,	8168,	7818,	8244,	8448,	8990,	8544,	8589,	8415,	8390,	8277,	9067,	8864,	8412,	9023,	15.11,	14.04,	14.89,	1.81,	13.45,	2.15,	2.22,	12.30,	12.15,	12.43,	14.71,	14.03,	14.61,	13.63,	1696,	1685
31,	8160,	7808,	8231,	8431,	8973,	8520,	8554,	8389,	8371,	8243,	9039,	8851,	8398,	9009,	15.11,	14.04,	14.89,	1.81,	13.45,	2.15,	2.22,	12.30,	12.15,	12.43,	14.71,	14.03,	14.61,	13.63,	1696,	1685
32,	8166,	7804,	8235,	8427,	8956,	8508,	8528,	8364,	8369,	8278,	9033,	8844,	8399,	9009,	15.11,	14.04,	14.89,	1.81,	13.45,	2.15,	2.22,	12.30,	12.15,	12.43,	14.71,	14.03,	14.61,	13.63,	1696,	1684
33,	8179,	7817,	8246,	8441,	8963,	8518,	8554,	8398,	8395,	8315,	9058,	8852,	8414,	9020,	15.11,	14.04,	14.89,	1.81,	13.45,	2.15,	2.22,	12.30,	12.15,	12.43,	14.71,	14.03,	14.61,	13.63,	1696,	1685
34,	8165,	7810,	8231,	8427,	8964,	8502,	8555,	8398,	8379,	8275,	9052,	8847,	8405,	9002,	15.11,	14.04,	14.89,	1.81,	13.45,	2.15,	2.22,	12.30,	12.15,	12.43,	14.71,	14.03,	14.61,	13.63,	1696,	1684
35,	8148,	7793,	8217,	8409,	8953,	8479,	8530,	8365,	8355,	8251,	9037,	8839,	8394,	8989,	15.11,	14.04,	14.89,	1.81,	13.45,	2.15,	2.22,	12.30,	12.15,	12.43,	14.71,	14.03,	14.61,	13.63,	1695,	1685
36,	8158,	7794,	8234,	8419,	8953,	8487,	8537,	8394,	8372,	8262,	9051,	8848,	8401,	9003,	15.11,	14.04,	14.89,	1.81,	13.45,	2.15,	2.22,	12.30,	12.15,	12.43,	14.71,	14.03,	14.61,	13.63,	1696,	1684
37,	8184,	7814,	8261,	8435,	8979,	8525,	8587,	8434,	8383,	8256,	9069,	8869,	8418,	9022,	15.11,	14.04,	14.89,	1.81,	13.45,	2.15,	2.22,	12.30,	12.15,	12.43,	14.71,	14.03,	14.61,	13.63,	1695,	1685
38,	8185,	7819,	8258,	8426,	8978,	8534,	8605,	8421,	8376,	8268,	9065,	8868,	8422,	9025,	15.11,	14.04,	14.89,	1.81,	13.45,	2.15,	2.22,	12.30,	12.15,	12.43,	14.71,	14.03,	14.61,	13.63,	1695,	1685
39,	8146,	7789,	8224,	8400,	8941,	8498,	8554,	8418,	8391,	8298,	9046,	8835,	8409,	9002,	15.11,	14.04,	14.89,	1.81,	13.45,	2.15,	2.22,	12.30,	12.15,	12.43,	14.71,	14.03,	14.61,	13.63,	1694,	1684
40,	8129,	7772,	8214,	8392,	8947,	8503,	8543,	8435,	8407,	8305,	9033,	8825,	8405,	8995,	15.11,	14.04,	14.89,	1.81,	13.45,	2.15,	2.22,	12.30,	12.15,	12.43,	14.71,	14.03,	14.61,	13.63,	1694,	1685
41,	8151,	7791,	8238,	8404,	8968,	8524,	8568,	8406,	8380,	8276,	9029,	8843,	8400,	9000,	15.11,	14.04,	14.89,	1.81,	13.45,	2.15,	2.22,	12.30,	12.15,	12.43,	14.71,	14.03,	14.61,	13.63,	1694,	1685
42,	8176,	7819,	8264,	8426,	8959,	8515,	8571,	8385,	8366,	8245,	9039,	8850,	8399,	9005,	15.11,	14.04,	14.89,	1.81,	13.45,	2.15,	2.22,	12.30,	12.15,	12.43,	14.71,	14.03,	14.61,	13.63,	1694,	1685
43,	8192,	7830,	8276,	8441,	8967,	8523,	8585,	8415,	8386,	8261,	9064,	8857,	8419,	9026,	15.11,	14.04,	14.89,	1.81,	13.45,	2.15,	2.22,	12.30,	12.15,	12.43,	14.71,	14.03,	14.61,	13.63,	1694,	1685
44,	8172,	7807,	8258,	8428,	8982,	8527,	8565,	8407,	8384,	8284,	9062,	8854,	8423,	9018,	15.11,	14.04,	14.89,	1.81,	13.45,	2.15,	2.22,	12.30,	12.15,	12.43,	14.71,	14.03,	14.61,	13.63,	1694,	1685
45,	8129,	7781,	8239,	8409,	8966,	8499,	8512,	8364,	8366,	8261,	9037,	8824,	8400,	8977,	15.11,	14.04,	14.89,	1.81,	13.45,	2.15,	2.22,	12.30,	12.15,	12.43,	14.71,	14.03,	14.61,	13.63,	1694,	1685
46,	8134,	7787,	8251,	8417,	8968,	8502,	8529,	8374,	8375,	8259,	9037,	8815,	8406,	8979,	15.11,	14.04,	14.89,	1.81,	13.45,	2.15,	2.22,	12.30,	12.15,	12.43,	14.71,	14.03,	14.61,	13.63,	1693,	1685
47,	8160,	7794,	8263,	8419,	8980,	8521,	8568,	8412,	8390,	8282,	9051,	8838,	8428,	9007,	15.11,	14.04,	14.89,	1.81,	13.45,	2.15,	2.22,	12.30,	12.15,	12.43,	14.71,	14.03,	14.61,	13.63,	1695,	1685
48,	8162,	7790,	8266,	8413,	8952,	8512,	8556,	8415,	8398,	8271,	9050,	8853,	8429,	9010,	15.11,	14.04,	14.89,	1.81,	13.45,	2.15,	2.22,	12.30,	12.15,	12.43,	14.71,	14.03,	14.61,	13.63,	1693,	1685
49,	8174,	7801,	8278,	8429,	8941,	8515,	8562,	8403,	8399,	8267,	9054,	8850,	8426,	9009,	15.11,	14.04,	14.89,	1.81,	13.45,	2.15,	2.22,	12.30,	12.15,	12.43,	14.71,	14.03,	14.61,	13.63,	1695,	1685
50,	8194,	7815,	8285,	8445,	8965,	8535,	8598,	8403,	8392,	8290,	9066,	8857,	8434,	9014,	15.11,	14.04,	14.89,	1.81,	13.45,	2.15,	2.22,	12.30,	12.15,	12.43,	14.71,	14.03,	14.61,	13.63,	1695,	1684
51,	8198,	7819,	8290,	8444,	8977,	8542,	8594,	8411,	8401,	8293,	9070,	8866,	8443,	9009,	15.11,	14.04,	14.89,	1.81,	13.45,	2.15,	2.22,	12.30,	12.15,	12.43,	14.71,	14.03,	14.61,	13.63,	1695,	1686
52,	8190,	7817,	8290,	8442,	8967,	8532,	8557,	8402,	8412,	8293,	9052,	8860,	8437,	9003,	15.11,	14.04,	14.89,	1.81,	13.45,	2.15,	2.22,	12.30,	12.15,	12.43,	14.71,	14.03,	14.61,	13.63,	1696,	1685
53,	8179,	7816,	8279,	8441,	8972,	8520,	8547,	8398,	8409,	8299,	9047,	8851,	8432,	9004,	15.11,	14.04,	14.89,	1.81,	13.45,	2.15,	2.22,	12.30,	12.15,	12.43,	14.71,	14.03,	14.61,	13.63,	1696,	1685
54,	8165,	7818,	8270,	8439,	8989,	8522,	8562,	8417,	8412,	8274,	9062,	8848,	8437,	9003,	15.11,	14.04,	14.89,	1.81,	13.45,	2.15,	2.22,	12.30,	12.15,	12.43,	14.71,	14.03,	14.61,	13.63,	1696,	1685
55,	8165,	7821,	8272,	8440,	8985,	8521,	8552,	8412,	8406,	8252,	9057,	8850,	8430,	8997,	15.11,	14.04,	14.89,	1.81,	13.45,	2.15,	2.22,	12.30,	12.15,	12.43,	14.71,	14.03,	14.61,	13.63,	1696,	1686
56,	8171,	7817,	8278,	8441,	8978,	8518,	8533,	8367,	8373,	8261,	9038,	8859,	8414,	8984,	15.11,	14.04,	14.89,	1.81,	13.45,	2.15,	2.22,	12.30,	12.15,	12.43,	14.71,	14.03,	14.61,	13.63,	1696,	1685
57,	8147,	7794,	8253,	8418,	8964,	8518,	8539,	8326,	8332,	8241,	9015,	8834,	8388,	8959,	15.11,	14.04,	14.89,	1.81,	13.45,	2.15,	2.22,	12.30,	12.15,	12.43,	14.71,	14.03,	14.61,	13.63,	1697,	1686
58,	8099,	7753,	8198,	8376,	8930,	8494,	8537,	8308,	8299,	8182,	8971,	8766,	8345,	8917,	15.11,	14.04,	14.89,	1.81,	13.45,	2.15,	2.22,	12.30,	12.15,	12.43,	14.71,	14.03,	14.61,	13.63,	1697,	1687
59,	8063,	7714,	8153,	8329,	8889,	8462,	8518,	8308,	8282,	8130,	8911,	8714,	8304,	8878,	15.11,	14.04,	14.89,	1.81,	13.45,	2.15,	2.22,	12.30,	12.15,	12.43,	14.71,	14.03,	14.61,	13.63,	1697,	1688
60,	8050,	7699,	8140,	8295,	8856,	8457,	8501,	8325,	8294,	8107,	8880,	8702,	8286,	8867,	15.11,	14.04,	14.89,	1.81,	13.45,	2.15,	2.22,	12.30,	12.15,	12.43,	14.71,	14.03,	14.61,	13.63,	1697,	1688
61,	8084,	7729,	8182,	8333,	8880,	8485,	8523,	8365,	8347,	8168,	8946,	8746,	8336,	8915,	15.11,	14.04,	14.89,	1.81,	13.45,	2.15,	2.22,	12.30,	12.15,	12.43,	14.71,	14.03,	14.61,	13.63,	1697,	1688
62,	8166,	7801,	8267,	8424,	8967,	8535,	8581,	8435,	8439,	8303,	9084,	8852,	8454,	9005,	15.11,	14.04,	14.89,	1.81,	13.45,	2.15,	2.22,	12.30,	12.15,	12.43,	14.71,	14.03,	14.61,	13.63,	1697,	1688
63,	8209,	7841,	8306,	8455,	9001,	8551,	8596,	8462,	8477,	8350,	9147,	8925,	8513,	9053,	15.11,	14.04,	14.89,	1.81,	13.45,	2.15,	2.22,	12.30,	12.15,	12.43,	14.71,	14.03,	14.61,	13.63,	1696,	1688
64,	8190,	7822,	8293,	8434,	8962,	8526,	8568,	8416,	8435,	8293,	9113,	8914,	8478,	9038,	15.11,	14.04,	14.89,	1.81,	13.45,	2.15,	2.22,	12.30,	12.15,	12.43,	14.71,	14.03,	14.61,	13.63,	1697,	1687
65,	8205,	7827,	8313,	8453,	8972,	8546,	8593,	8419,	8431,	8307,	9124,	8910,	8489,	9046,	15.11,	14.06,	14.89,	1.81,	13.45,	2.15,	2.22,	12.30,	12.15,	12.43,	14.71,	14.03,	14.61,	13.63,	1696,	1688
66,	8229,	7845,	8336,	8471,	9004,	8588,	8644,	8466,	8460,	8344,	9159,	8933,	8532,	9073,	15.11,	14.06,	14.87,	1.81,	13.45,	2.15,	2.22,	12.30,	12.15,	12.43,	14.71,	14.03,	14.61,	13.63,	1698,	1687
67,	8206,	7821,	8307,	8431,	8965,	8562,	8631,	8438,	8432,	8283,	9127,	8921,	8500,	9054,	15.11,	14.06,	14.87,	1.82,	13.45,	2.15,	2.22,	12.30,	12.15,	12.43,	14.71,	14.03,	14.61,	13.63,	1696,	1687
68,	8180,	7792,	8283,	8401,	8925,	8525,	8567,	8387,	8394,	8243,	9087,	8889,	8456,	9021,	15.11,	14.06,	14.87,	1.82,	13.50,	2.15,	2.22,	12.30,	12.15,	12.43,	14.71,	14.03,	14.61,	13.63,	1697,	1688
69,	8172,	7792,	8285,	8401,	8938,	8519,	8527,	8397,	8403,	8287,	9084,	8878,	8461,	9014,	15.11,	14.06,	14.87,	1.82,	13.50,	2.18,	2.22,	12.30,	12.15,	12.43,	14.71,	14.03,	14.61,	13.63,	1698,	1687
70,	8165,	7795,	8280,	8410,	8957,	8507,	8545,	8411,	8414,	8298,	9083,	8879,	8458,	9013,	15.11,	14.06,	14.87,	1.82,	13.50,	2.18,	2.21,	12.30,	12.15,	12.43,	14.71,	14.03,	14.61,	13.63,	1697,	1688
71,	8162,	7791,	8275,	8419,	8964,	8499,	8566,	8393,	8397,	8252,	9077,	8862,	8442,	9001,	15.11,	14.06,	14.87,	1.82,	13.50,	2.18,	2.21,	12.30,	12.15,	12.43,	14.71,	14.03,	14.61,	13.63,	1698,	1687
72,	8165,	7796,	8286,	8419,	8964,	8506,	8551,	8396,	8395,	8242,	9081,	8846,	8443,	8999,	15.11,	14.06,	14.87,	1.82,	13.50,	2.18,	2.21,	12.30,	12.19,	12.43,	14.71,	14.03,	14.61,	13.63,	1697,	1687
73,	8167,	7800,	8289,	8416,	8950,	8521,	8552,	8416,	8410,	8268,	9076,	8854,	8446,	8999,	15.11,	14.06,	14.87,	1.82,	13.50,	2.18,	2.21,	12.30,	12.19,	12.39,	14.71,	14.03,	14.61,	13.63,	1698,	1687
74,	8164,	7782,	8270,	8405,	8944,	8535,	8592,	8412,	8396,	8252,	9060,	8860,	8430,	8985,	15.11,	14.06,	14.87,	1.82,	13.50,	2.18,	2.21,	12.30,	12.19,	12.39,	14.70,	14.03,	14.61,	13.63,	1697,	1688
75,	8152,	7757,	8260,	8379,	8939,	8528,	8597,	8403,	8378,	8220,	9054,	8849,	8412,	8976,	15.11,	14.06,	14.87,	1.82,	13.50,	2.18,	2.21,	12.30,	12.19,	12.39,	14.70,	14.00,	14.61,	13.63,	1698,	1689
76,	8147,	7759,	8272,	8365,	8915,	8491,	8544,	8412,	8399,	8234,	9058,	8846,	8417,	8987,	15.11,	14.06,	14.87,	1.82,	13.50,	2.18,	2.21,	12.30,	12.19,	12.39,	14.70,	14.00,	14.58,	13.63,	1696,	1689
77,	8162,	7782,	8285,	8390,	8915,	8492,	8515,	8406,	8412,	8261,	9068,	8854,	8437,	9001,	15.11,	14.06,	14.87,	1.82,	13.50,	2.18,	2.21,	12.30,	12.19,	12.39,	14.70,	14.00,	14.58,	13.67,	1698,	1688
78,	8166,	7788,	8284,	8414,	8951,	8519,	8517,	8372,	8382,	8246,	9070,	8857,	8435,	8993,	15.11,	14.06,	14.87,	1.82,	13.50,	2.18,	2.21,	12.30,	12.19,	12.39,	14.71,	14.00,	14.58,	13.67,	1696,	1688
79,	8163,	7787,	8279,	8412,	8964,	8512,	8515,	8359,	8366,	8217,	9060,	8848,	8417,	8978,	15.11,	14.06,	14.87,	1.82,	13.50,	2.18,	2.21,	12.30,	12.19,	12.39,	14.71,	14.03,	14.58,	13.67,	1697,	1689
80,	8179,	7807,	8293,	8419,	8956,	8515,	8522,	8364,	8380,	8221,	9067,	8848,	8430,	8992,	15.11,	14.06,	14.87,	1.82,	13.50,	2.18,	2.21,	12.30,	12.19,	12.39,	14.71,	14.03,	14.61,	13.67,	1696,	1687
81,	8189,	7818,	8299,	8430,	8960,	8527,	8524,	8357,	8375,	8229,	9087,	8858,	8451,	9006,	15.11,	14.06,	14.87,	1.82,	13.50,	2.18,	2.21,	12.30,	12.19,	12.39,	14.71,	14.03,	14.61,	13.63,	1696,	1689
82,	8157,	7786,	8273,	8407,	8942,	8490,	8497,	8336,	8346,	8203,	9072,	8840,	8425,	8981,	15.11,	14.06,	14.87,	1.82,	13.50,	2.18,	2.21,	12.30,	12.19,	12.39,	14.71,	14.03,	14.61,	13.63,	1696,	1687
83,	8124,	7747,	8250,	8373,	8902,	8448,	8477,	8320,	8331,	8182,	9048,	8812,	8398,	8956,	15.11,	14.06,	14.87,	1.82,	13.50,	2.18,	2.21,	12.30,	12.19,	12.39,	14.71,	14.00,	14.61,	13.63,	1695,	1688
84,	8130,	7749,	8257,	8375,	8910,	8468,	8499,	8330,	8341,	8206,	9058,	8822,	8419,	8967,	15.11,	14.06,	14.87,	1.82,	13.50,	2.18,	2.21,	12.30,	12.19,	12.39,	14.71,	14.00,	14.62,	13.63,	1696,	1687
85,	8148,	7767,	8268,	8391,	8934,	8490,	8506,	8346,	8344,	8208,	9068,	8845,	8439,	8977,	15.11,	14.06,	14.87,	1.82,	13.50,	2.18,	2.21,	12.30,	12.19,	12.39,	14.71,	14.00,	14.62,	13.66,	1695,	1688
86,	8166,	7769,	8276,	8392,	8916,	8466,	8485,	8337,	8335,	8189,	9070,	8851,	8432,	8980,	15.11,	14.06,	14.87,	1.82,	13.50,	2.18,	2.21,	12.30,	12.19,	12.39,	14.71,	14.00,	14.62,	13.66,	1695,	1687
87,	8191,	7786,	8306,	8411,	8918,	8481,	8510,	8337,	8354,	8217,	9096,	8872,	8453,	9012,	15.11,	14.06,	14.87,	1.82,	13.50,	2.18,	2.21,	12.30,	12.19,	12.39,	14.71,	14.01,	14.62,	13.66,	1694,	1688
88,	8202,	7812,	8329,	8429,	8957,	8522,	8558,	8365,	8381,	8242,	9113,	8893,	8485,	9038,	15.11,	14.06,	14.87,	1.82,	13.50,	2.18,	2.21,	12.30,	12.19,	12.39,	14.71,	14.01,	14.61,	13.66,	1695,	1688
89,	8193,	7804,	8319,	8418,	8954,	8508,	8536,	8385,	8377,	8227,	9092,	8882,	8472,	9021,	15.11,	14.06,	14.87,	1.82,	13.50,	2.18,	2.21,	12.30,	12.19,	12.39,	14.71,	14.01,	14.61,	13.63,	1694,	1687
90,	8185,	7790,	8308,	8412,	8922,	8482,	8493,	8380,	8374,	8236,	9085,	8872,	8454,	9003,	15.11,	14.06,	14.87,	1.82,	13.50,	2.18,	2.21,	12.30,	12.19,	12.39,	14.71,	14.01,	14.61,	13.63,	1695,	1688
91,	8190,	7797,	8308,	8419,	8935,	8500,	8521,	8379,	8393,	8256,	9106,	8880,	8473,	9021,	15.11,	14.06,	14.87,	1.82,	13.50,	2.18,	2.21,	12.30,	12.19,	12.39,	14.71,	14.00,	14.61,	13.63,	1695,	1687
92,	8191,	7799,	8297,	8411,	8955,	8508,	8548,	8394,	8405,	8254,	9111,	8883,	8482,	9036,	15.11,	14.06,	14.87,	1.82,	13.50,	2.18,	2.21,	12.30,	12.19,	12.39,	14.71,	14.00,	14.58,	13.63,	1694,	1688
93,	8184,	7783,	8287,	8399,	8936,	8488,	8526,	8398,	8396,	8247,	9088,	8876,	8460,	9023,	15.11,	14.06,	14.87,	1.82,	13.50,	2.18,	2.21,	12.30,	12.19,	12.39,	14.71,	14.00,	14.58,	13.66,	1695,	1686
94,	8202,	7799,	8314,	8425,	8943,	8522,	8553,	8412,	8404,	8246,	9104,	8899,	8475,	9036,	15.11,	14.06,	14.87,	1.82,	13.50,	2.18,	2.21,	12.30,	12.19,	12.39,	14.71,	14.00,	14.58,	13.66,	1694,	1686
95,	8257,	7855,	8379,	8483,	8998,	8588,	8631,	8469,	8455,	8287,	9185,	8968,	8546,	9087,	15.11,	14.06,	14.87,	1.82,	13.50,	2.18,	2.21,	12.30,	12.19,	12.39,	14.71,	14.03,	14.58,	13.66,	1695,	1684
96,	8297,	7891,	8434,	8522,	9027,	8595,	8649,	8513,	8507,	8348,	9259,	9034,	8597,	9131,	15.11,	14.06,	14.87,	1.82,	13.50,	2.18,	2.21,	12.30,	12.19,	12.39,	14.71,	14.03,	14.59,	13.66,	1695,	1685
97,	8295,	7879,	8449,	8525,	8996,	8555,	8596,	8485,	8497,	8337,	9265,	9045,	8587,	9135,	15.11,	14.06,	14.87,	1.82,	13.50,	2.18,	2.21,	12.30,	12.19,	12.39,	14.71,	14.03,	14.59,	13.63,	1695,	1685
98,	8283,	7865,	8452,	8523,	8969,	8532,	8562,	8434,	8433,	8281,	9248,	9033,	8563,	9108,	15.11,	14.06,	14.87,	1.82,	13.50,	2.18,	2.21,	12.30,	12.19,	12.39,	14.73,	14.03,	14.59,	13.63,	1695,	1685
99,	8285,	7879,	8468,	8540,	8976,	8537,	8573,	8416,	8415,	8274,	9262,	9046,	8567,	9099,	15.11,	14.06,	14.87,	1.82,	13.50,	2.18,	2.21,	12.30,	12.19,	12.39,	14.73,	14.00,	14.59,	13.63,	1695,	1685
100,	8286,	7887,	8480,	8550,	8975,	8538,	8578,	8409,	8438,	8301,	9276,	9068,	8576,	9107,	15.11,	14.06,	14.87,	1.82,	13.50,	2.18,	2.21,	12.30,	12.19,	12.39,	14.73,	14.00,	14.61,	13.63,	1694,	1685
101,	8268,	7881,	8468,	8549,	8968,	8538,	8565,	8401,	8398,	8279,	9269,	9068,	8564,	9104,	15.11,	14.06,	14.87,	1.82,	13.50,	2.18,	2.21,	12.30,	12.19,	12.39,	14.73,	14.00,	14.61,	13.64,	1695,	1685
102,	8256,	7892,	8461,	8567,	8990,	8548,	8560,	8396,	8319,	8239,	9260,	9064,	8555,	9099,	15.11,	14.06,	14.87,	1.82,	13.50,	2.18,	2.21,	12.30,	12.19,	12.39,	14.70,	14.00,	14.61,	13.64,	1696,	1683
103,	8259,	7900,	8454,	8576,	9010,	8553,	8567,	8392,	8286,	8259,	9244,	9049,	8553,	9097,	15.11,	14.06,	14.87,	1.82,	13.50,	2.18,	2.21,	12.30,	12.19,	12.39,	14.70,	14.03,	14.61,	13.64,	1695,	1684
104,	8232,	7867,	8410,	8535,	8982,	8530,	8548,	8380,	8269,	8281,	9205,	9004,	8526,	9063,	15.11,	14.06,	14.87,	1.82,	13.50,	2.18,	2.21,	12.30,	12.19,	12.39,	14.70,	14.03,	14.58,	13.64,	1697,	1682
105,	8203,	7838,	8372,	8495,	8962,	8517,	8537,	8363,	8250,	8254,	9168,	8969,	8499,	9033,	15.11,	14.06,	14.87,	1.82,	13.50,	2.18,	2.21,	12.30,	12.19,	12.39,	14.70,	14.03,	14.58,	13.64,	1696,	1684
106,	8217,	7853,	8370,	8506,	8979,	8548,	8572,	8384,	8275,	8245,	9156,	8962,	8504,	9045,	15.11,	14.06,	14.87,	1.82,	13.50,	2.18,	2.21,	12.30,	12.19,	12.39,	14.70,	14.03,	14.58,	13.64,	1697,	1685
107,	8213,	7849,	8356,	8498,	8963,	8549,	8568,	8402,	8291,	8257,	9139,	8938,	8496,	9042,	15.11,	14.06,	14.87,	1.82,	13.50,	2.18,	2.21,	12.30,	12.19,	12.39,	14.70,	13.99,	14.58,	13.64,	1696,	1685
108,	8171,	7809,	8315,	8448,	8931,	8508,	8527,	8359,	8255,	8235,	9103,	8899,	8459,	9002,	15.11,	14.06,	14.87,	1.82,	13.50,	2.18,	2.21,	12.30,	12.19,	12.39,	14.70,	13.99,	14.62,	13.64,	1697,	1686
109,	8154,	7797,	8289,	8427,	8945,	8502,	8537,	8319,	8233,	8212,	9078,	8881,	8445,	8977,	15.11,	14.06,	14.87,	1.82,	13.50,	2.18,	2.21,	12.30,	12.19,	12.39,	14.70,	13.99,	14.62,	13.64,	1696,	1686
110,	8162,	7807,	8283,	8440,	8968,	8529,	8557,	8346,	8246,	8226,	9075,	8875,	8454,	8987,	15.11,	14.06,	14.87,	1.82,	13.50,	2.18,	2.21,	12.30,	12.19,	12.39,	14.71,	13.99,	14.62,	13.64,	1697,	1687
111,	8167,	7809,	8281,	8445,	8969,	8544,	8546,	8384,	8263,	8253,	9081,	8875,	8464,	9003,	15.11,	14.06,	14.87,	1.82,	13.50,	2.18,	2.21,	12.30,	12.19,	12.39,	14.71,	14.01,	14.62,	13.64,	1696,	1687
112,	8171,	7813,	8281,	8437,	8974,	8547,	8553,	8382,	8284,	8264,	9089,	8884,	8480,	9011,	15.11,	14.06,	14.87,	1.82,	13.50,	2.18,	2.21,	12.30,	12.19,	12.39,	14.71,	14.01,	14.59,	13.64,	1696,	1688
113,	8167,	7803,	8267,	8420,	8961,	8529,	8544,	8374,	8285,	8231,	9080,	8873,	8474,	9006,	15.11,	14.06,	14.87,	1.82,	13.50,	2.18,	2.21,	12.30,	12.19,	12.39,	14.71,	14.01,	14.59,	13.63,	1696,	1688
114,	8146,	7778,	8246,	8407,	8934,	8483,	8485,	8377,	8272,	8220,	9060,	8847,	8452,	8989,	15.11,	14.06,	14.87,	1.82,	13.50,	2.18,	2.21,	12.30,	12.19,	12.39,	14.71,	14.01,	14.59,	13.63,	1696,	1688
115,	8143,	7773,	8239,	8406,	8934,	8480,	8496,	8384,	8274,	8256,	9053,	8840,	8448,	8984,	15.11,	14.06,	14.87,	1.82,	13.50,	2.18,	2.21,	12.30,	12.19,	12.39,	14.71,	13.99,	14.59,	13.63,	1695,	1688
116,	8157,	7788,	8249,	8408,	8952,	8533,	8581,	8380,	8273,	8247,	9057,	8849,	8450,	8995,	15.11,	14.06,	14.87,	1.82,	13.50,	2.18,	2.21,	12.30,	12.19,	12.39,	14.71,	13.99,	14.59,	13.63,	1696,	1688
117,	8172,	7797,	8263,	8416,	8954,	8555,	8589,	8371,	8269,	8224,	9060,	8854,	8449,	9007,	15.11,	14.06,	14.87,	1.82,	13.50,	2.18,	2.21,	12.30,	12.19,	12.39,	14.71,	13.99,	14.59,	13.64,	1695,	1688
118,	8175,	7790,	8260,	8416,	8944,	8518,	8527,	8377,	8271,	8239,	9050,	8851,	8446,	9004,	15.11,	14.06,	14.87,	1.82,	13.50,	2.18,	2.21,	12.30,	12.19,	12.39,	14.74,	13.99,	14.59,	13.64,	1695,	1687
119,	8171,	7785,	8245,	8406,	8946,	8498,	8527,	8395,	8270,	8234,	9030,	8845,	8436,	9000,	15.11,	14.06,	14.87,	1.82,	13.50,	2.18,	2.21,	12.30,	12.19,	12.39,	14.74,	14.03,	14.59,	13.64,	1695,	1688
120,	8171,	7800,	8237,	8418,	8965,	8526,	8567,	8407,	8280,	8227,	9029,	8846,	8434,	9002,	15.11,	14.06,	14.87,	1.82,	13.50,	2.18,	2.21,	12.30,	12.19,	12.39,	14.74,	14.03,	14.62,	13.64,	1696,	1688
121,	8164,	7804,	8242,	8427,	8981,	8536,	8566,	8413,	8304,	8252,	9041,	8850,	8449,	8999,	15.11,	14.06,	14.87,	1.82,	13.50,	2.18,	2.21,	12.30,	12.19,	12.39,	14.74,	14.03,	14.62,	13.66,	1696,	1685
122,	8162,	7792,	8245,	8415,	8977,	8520,	8546,	8438,	8323,	8256,	9047,	8854,	8466,	9008,	15.11,	14.06,	14.87,	1.82,	13.50,	2.18,	2.21,	12.30,	12.19,	12.39,	14.73,	14.03,	14.62,	13.66,	1695,	1687
123,	8168,	7791,	8240,	8414,	8958,	8508,	8526,	8432,	8311,	8250,	9050,	8856,	8463,	9016,	15.11,	14.06,	14.87,	1.82,	13.50,	2.18,	2.21,	12.30,	12.19,	12.39,	14.73,	14.01,	14.62,	13.66,	1697,	1685
124,	8162,	7786,	8228,	8412,	8938,	8494,	8493,	8364,	8278,	8254,	9037,	8846,	8442,	9004,	15.11,	14.06,	14.87,	1.82,	13.50,	2.18,	2.21,	12.30,	12.19,	12.39,	14.73,	14.01,	14.59,	13.66,	1696,	1686
125,	8166,	7785,	8228,	8406,	8936,	8490,	8496,	8324,	8258,	8233,	9037,	8852,	8452,	9007,	15.11,	14.06,	14.87,	1.82,	13.50,	2.18,	2.21,	12.30,	12.19,	12.39,	14.73,	14.01,	14.59,	13.63,	1697,	1686
126,	8192,	7798,	8242,	8415,	8949,	8503,	8532,	8365,	8278,	8236,	9063,	8873,	8491,	9036,	15.11,	14.06,	14.87,	1.82,	13.50,	2.18,	2.21,	12.30,	12.19,	12.39,	14.70,	14.01,	14.59,	13.63,	1697,	1686
127,	8204,	7798,	8244,	8416,	8954,	8520,	8550,	8405,	8308,	8284,	9062,	8879,	8492,	9042,	15.11,	14.06,	14.87,	1.82,	13.50,	2.18,	2.21,	12.30,	12.19,	12.39,	14.70,	14.01,	14.59,	13.63,	1697,	1686
0,	8196,	7781,	8219,	8391,	8943,	8513,	8549,	8397,	8304,	8262,	9039,	8858,	8468,	9037,	15.13,	14.06,	14.87,	1.82,	13.50,	2.18,	2.21,	12.30,	12.19,	12.39,	14.70,	14.01,	14.59,	13.63,	1698,	1686
1,	8184,	7786,	8209,	8408,	8953,	8504,	8552,	8383,	8289,	8255,	9034,	8853,	8460,	9026,	15.13,	14.04,	14.87,	1.82,	13.50,	2.18,	2.21,	12.30,	12.19,	12.39,	14.70,	14.01,	14.59,	13.63,	1697,	1685
2,	8157,	7777,	8198,	8403,	8950,	8496,	8538,	8349,	8269,	8244,	9025,	8833,	8433,	8999,	15.13,	14.04,	14.90,	1.82,	13.50,	2.18,	2.21,	12.30,	12.19,	12.39,	14.70,	14.01,	14.59,	13.63,	1697,	1686
3,	8150,	7764,	8185,	8379,	8936,	8501,	8552,	8359,	8271,	8227,	9032,	8819,	8433,	8991,	15.13,	14.04,	14.90,	1.78,	13.50,	2.18,	2.21,	12.30,	12.19,	12.39,	14.70,	14.01,	14.59,	13.63,	1697,	1685
4,	8154,	7758,	8176,	8365,	8934,	8516,	8590,	8389,	8284,	8231,	9037,	8822,	8449,	8993,	15.13,	14.04,	14.90,	1.78,	13.48,	2.18,	2.21,	12.30,	12.19,	12.39,	14.70,	14.01,	14.59,	13.63,	1696,	1687
5,	8168,	7776,	8187,	8384,	8953,	8535,	8589,	8379,	8289,	8243,	9045,	8842,	8463,	9007,	15.13,	14.04,	14.90,	1.78,	13.48,	2.15,	2.21,	12.30,	12.19,	12.39,	14.70,	14.01,	14.59,	13.63,	1697,	1686
6,	8194,	7799,	8212,	8411,	8963,	8544,	8568,	8386,	8300,	8259,	9067,	8870,	8480,	9036,	15.13,	14.04,	14.90,	1.78,	13.48,	2.15,	2.19,	12.30,	12.19,	12.39,	14.70,	14.01,	14.59,	13.63,	1695,	1686
7,	8202,	7800,	8216,	8412,	8970,	8547,	8597,	8429,	8328,	8295,	9074,	8884,	8486,	9046,	15.13,	14.04,	14.90,	1.78,	13.48,	2.15,	2.19,	12.28,	12.19,	12.39,	14.70,	14.01,	14.59,	13.63,	1696,	1687
8,	8175,	7781,	8189,	8391,	8970,	8540,	8612,	8419,	8332,	8300,	9051,	8860,	8466,	9018,	15.13,	14.04,	14.90,	1.78,	13.48,	2.15,	2.19,	12.28,	12.15,	12.39,	14.70,	14.01,	14.59,	13.63,	1696,	1685
9,	8157,	7773,	8177,	8375,	8955,	8517,	8567,	8384,	8305,	8263,	9031,	8823,	8447,	9001,	15.13,	14.04,	14.90,	1.78,	13.48,	2.15,	2.19,	12.28,	12.15,	12.43,	14.70,	14.01,	14.59,	13.63,	1695,	1685
10,	8162,	7776,	8188,	8379,	8947,	8513,	8554,	8403,	8294,	8247,	9024,	8819,	8443,	9005,	15.13,	14.04,	14.90,	1.78,	13.48,	2.15,	2.19,	12.28,	12.15,	12.43,	14.73,	14.01,	14.59,	13.63,	1695,	1683
11,	8149,	7760,	8174,	8375,	8949,	8506,	8557,	8400,	8292,	8247,	9008,	8821,	8423,	8984,	15.13,	14.04,	14.90,	1.78,	13.48,	2.15,	2.19,	12.28,	12.15,	12.43,	14.73,	14.00,	14.59,	13.63,	1695,	1684
12,	8126,	7747,	8148,	8363,	8944,	8500,	8548,	8362,	8282,	8222,	8990,	8810,	8403,	8960,	15.13,	14.04,	14.90,	1.78,	13.48,	2.15,	2.19,	12.28,	12.15,	12.43,	14.73,	14.00,	14.58,	13.63,	1695,	1683
13,	8127,	7761,	8150,	8364,	8933,	8512,	8562,	8367,	8279,	8199,	8995,	8810,	8415,	8967,	15.13,	14.04,	14.90,	1.78,	13.48,	2.15,	2.19,	12.28,	12.15,	12.43,	14.73,	14.00,	14.58,	13.66,	1695,	1684
14,	8139,	7769,	8167,	8376,	8942,	8514,	8560,	8392,	8294,	8218,	9005,	8815,	8429,	8976,	15.13,	14.04,	14.90,	1.78,	13.48,	2.15,	2.19,	12.28,	12.15,	12.43,	14.70,	14.00,	14.58,	13.66,	1695,	1684
15,	8127,	7759,	8168,	8377,	8939,	8489,	8511,	8388,	8309,	8259,	9000,	8810,	8421,	8967,	15.13,	14.04,	14.90,	1.78,	13.48,	2.15,	2.19,	12.28,	12.15,	12.43,	14.70,	14.03,	14.58,	13.66,	1694,	1686
16,	8123,	7761,	8165,	8376,	8929,	8493,	8509,	8379,	8307,	8265,	9003,	8813,	8424,	8970,	15.13,	14.04,	14.90,	1.78,	13.48,	2.15,	2.19,	12.28,	12.15,	12.43,	14.70,	14.03,	14.58,	13.66,	1696,	1685
17,	8149,	7781,	8175,	8390,	8960,	8525,	8555,	8393,	8317,	8257,	9012,	8823,	8444,	8991,	15.13,	14.04,	14.90,	1.78,	13.48,	2.15,	2.19,	12.28,	12.15,	12.43,	14.70,	14.03,	14.58,	13.66,	1695,	1686
18,	8168,	7795,	8184,	8401,	8989,	8549,	8597,	8432,	8346,	8272,	9012,	8826,	8454,	9007,	15.13,	14.04,	14.90,	1.78,	13.48,	2.15,	2.19,	12.28,	12.15,	12.43,	14.70,	14.03,	14.58,	13.66,	1696,	1686
19,	8169,	7803,	8197,	8406,	8990,	8575,	8646,	8468,	8360,	8295,	9016,	8833,	8462,	9010,	15.13,	14.04,	14.90,	1.78,	13.48,	2.15,	2.19,	12.28,	12.15,	12.43,	14.70,	14.03,	14.58,	13.66,	1695,	1685
20,	8167,	7806,	8200,	8406,	8978,	8568,	8629,	8436,	8341,	8280,	9020,	8836,	8458,	9006,	15.13,	14.04,	14.90,	1.78,	13.48,	2.15,	2.19,	12.28,	12.15,	12.43,	14.70,	14.03,	14.58,	13.66,	1695,	1685
21,	8166,	7800,	8192,	8398,	8955,	8527,	8560,	8387,	8316,	8239,	9012,	8827,	8445,	9002,	15.13,	14.04,	14.90,	1.78,	13.48,	2.15,	2.19,	12.28,	12.15,	12.43,	14.70,	14.03,	14.58,	13.66,	1696,	1683
22,	8159,	7787,	8186,	8389,	8946,	8521,	8565,	8381,	8304,	8221,	8995,	8815,	8441,	8997,	15.13,	14.04,	14.90,	1.78,	13.48,	2.15,	2.19,	12.28,	12.15,	12.43,	14.70,	14.03,	14.58,	13.66,	1695,	1684
23,	8166,	7798,	8202,	8402,	8978,	8555,	8614,	8372,	8295,	8239,	9000,	8834,	8446,	9004,	15.13,	14.04,	14.90,	1.78,	13.48,	2.15,	2.19,	12.28,	12.15,	12.43,	14.70,	14.03,	14.58,	13.66,	1695,	1684
24,	8179,	7814,	8218,	8420,	8988,	8542,	8579,	8349,	8292,	8258,	9014,	8855,	8446,	9015,	15.13,	14.04,	14.90,	1.78,	13.48,	2.15,	2.19,	12.28,	12.15,	12.43,	14.70,	14.03,	14.58,	13.66,	1695,	1685
25,	8160,	7791,	8204,	8407,	8938,	8481,	8504,	8327,	8284,	8246,	8994,	8838,	8432,	8993,	15.13,	14.04,	14.90,	1.78,	13.48,	2.15,	2.19,	12.28,	12.15,	12.43,	14.70,	14.03,	14.58,	13.66,	1695,	1685
26,	8132,	7773,	8184,	8390,	8919,	8475,	8510,	8316,	8280,	8223,	8976,	8818,	8423,	8966,	15.13,	14.04,	14.90,	1.78,	13.48,	2.15,	2.19,	12.28,	12.15,	12.43,	14.70,	14.03,	14.58,	13.66,	1695,	1686
27,	8136,	7786,	8185,	8399,	8956,	8514,	8556,	8331,	8294,	8231,	8993,	8821,	8432,	8974,	15.13,	14.04,	14.90,	1.78,	13.48,	2.15,	2.19,	12.28,	12.15,	12.43,	14.70,	14.03,	14.58,	13.66,	1696,	1684
28,	8153,	7788,	8192,	8403,	8969,	8528,	8575,	8361,	8301,	8238,	8995,	8825,	8438,	8985,	15.13,	14.04,	14.90,	1.78,	13.48,	2.15,	2.19,	12.28,	12.15,	12.43,	14.70,	14.03,	14.58,	13.66,	1694,	1684
29,	8131,	7769,	8168,	8377,	8959,	8527,	8578,	8361,	8273,	8203,	8946,	8797,	8403,	8953,	15.13,	14.04,	14.90,	1.78,	13.48,	2.15,	2.19,	12.28,	12.15,	12.43,	14.70,	14.03,	14.58,	13.66,	1696,	1684
30,	8078,	7731,	8117,	8332,	8931,	8501,	8536,	8307,	8222,	8152,	8882,	8737,	8332,	8898,	15.13,	14.04,	14.90,	1.78,	13.48,	2.15,	2.19,	12.28,	12.15,	12.43,	14.70,	14.03,	14.58,	13.66,	1696,	1683
31,	8042,	7683,	8073,	8282,	8890,	8459,	8491,	8257,	8188,	8127,	8834,	8682,	8279,	8857,	15.13,	14.04,	14.90,	1.78,	13.48,	2.15,	2.19,	12.28,	12.15,	12.43,	14.70,	14.03,	14.58,	13.66,	1696,	1684
32,	8061,	7683,	8087,	8277,	8887,	8474,	8531,	8296,	8218,	8142,	8843,	8702,	8302,	8876,	15.13,	14.04,	14.90,	1.78,	13.48,	2.15,	2.19,	12.28,	12.15,	12.43,	14.70,	14.03,	14.58,	13.66,	1696,	1684
33,	8137,	7755,	8173,	8349,	8935,	8536,	8589,	8389,	8312,	8223,	8939,	8800,	8404,	8970,	15.13,	14.04,	14.90,	1.78,	13.48,	2.15,	2.19,	12.28,	12.15,	12.43,	14.70,	14.03,	14.58,	13.66,	1696,	1684
34,	8213,	7821,	8257,	8428,	8971,	8561,	8593,	8432,	8386,	8316,	9038,	8887,	8499,	9056,	15.13,	14.04,	14.90,	1.78,	13.48,	2.15,	2.19,	12.28,	12.15,	12.43,	14.70,	14.03,	14.58,	13.66,	1697,	1683
35,	8234,	7832,	8276,	8445,	8971,	8546,	8582,	8419,	8383,	8312,	9055,	8913,	8514,	9064,	15.13,	14.04,	14.90,	1.78,	13.48,	2.15,	2.19,	12.28,	12.15,	12.43,	14.70,	14.03,	14.58,	13.66,	1697,	1683
36,	8218,	7816,	8252,	8416,	8968,	8536,	8574,	8403,	8357,	8266,	9029,	8894,	8490,	9048,	15.13,	14.04,	14.90,	1.78,	13.48,	2.15,	2.19,	12.28,	12.15,	12.43,	14.70,	14.03,	14.58,	13.66,	1698,	1683
37,	8197,	7801,	8231,	8390,	8961,	8530,	8555,	8389,	8349,	8274,	9013,	8869,	8475,	9041,	15.13,	14.04,	14.90,	1.78,	13.48,	2.15,	2.19,	12.28,	12.15,	12.43,	14.70,	14.03,	14.58,	13.66,	1698,	1683
38,	8187,	7799,	8232,	8404,	8945,	8508,	8541,	8382,	8337,	8288,	9004,	8855,	8458,	9018,	15.13,	14.04,	14.90,	1.78,	13.48,	2.15,	2.19,	12.28,	12.15,	12.43,	14.70,	14.03,	14.58,	13.66,	1698,	1683
39,	8179,	7807,	8234,	8444,	8944,	8491,	8533,	8375,	8316,	8266,	8981,	8851,	8435,	8998,	15.13,	14.04,	14.90,	1.78,	13.48,	2.15,	2.19,	12.28,	12.15,	12.43,	14.70,	14.03,	14.58,	13.66,	1699,	1685
40,	8171,	7819,	8232,	8465,	8960,	8513,	8553,	8373,	8311,	8243,	8952,	8852,	8419,	8999,	15.13,	14.04,	14.90,	1.78,	13.48,	2.15,	2.19,	12.28,	12.15,	12.43,	14.70,	14.03,	14.58,	13.66,	1699,	1685
41,	8167,	7825,	8237,	8469,	8962,	8531,	8577,	8378,	8318,	8239,	8942,	8841,	8409,	8983,	15.13,	14.04,	14.90,	1.78,	13.48,	2.15,	2.19,	12.28,	12.15,	12.43,	14.70,	14.03,	14.58,	13.66,	1699,	1686
42,	8166,	7819,	8240,	8471,	8938,	8511,	8563,	8376,	8311,	8220,	8945,	8833,	8401,	8968,	15.13,	14.04,	14.90,	1.78,	13.48,	2.15,	2.19,	12.28,	12.15,	12.43,	14.70,	14.03,	14.58,	13.66,	1699,	1687
43,	8162,	7811,	8227,	8466,	8942,	8509,	8566,	8392,	8317,	8204,	8943,	8838,	8401,	8982,	15.13,	14.04,	14.90,	1.78,	13.48,	2.15,	2.19,	12.28,	12.15,	12.43,	14.70,	14.03,	14.58,	13.66,	1699,	1688
44,	8163,	7811,	8223,	8461,	8977,	8535,	8593,	8409,	8338,	8232,	8942,	8833,	8410,	8988,	15.13,	14.04,	14.90,	1.78,	13.48,	2.15,	2.19,	12.28,	12.15,	12.43,	14.70,	14.03,	14.58,	13.66,	1699,	1688
45,	8168,	7819,	8230,	8461,	8990,	8553,	8612,	8405,	8344,	8251,	8938,	8820,	8405,	8975,	15.13,	14.04,	14.90,	1.78,	13.48,	2.15,	2.19,	12.28,	12.15,	12.43,	14.70,	14.03,	14.58,	13.66,	1698,	1688
46,	8169,	7826,	8226,	8461,	8975,	8550,	8608,	8401,	8337,	8239,	8932,	8819,	8389,	8975,	15.13,	14.04,	14.90,	1.78,	13.48,	2.15,	2.19,	12.28,	12.15,	12.43,	14.70,	14.03,	14.58,	13.66,	1699,	1688
47,	8166,	7818,	8217,	8453,	8955,	8515,	8557,	8382,	8320,	8231,	8931,	8818,	8381,	8979,	15.13,	14.04,	14.90,	1.78,	13.48,	2.15,	2.19,	12.28,	12.15,	12.43,	14.70,	14.03,	14.58,	13.66,	1697,	1689
48,	8160,	7798,	8210,	8437,	8941,	8496,	8537,	8360,	8299,	8211,	8922,	8807,	8383,	8979,	15.13,	14.04,	14.90,	1.78,	13.48,	2.15,	2.19,	12.28,	12.15,	12.43,	14.70,	14.03,	14.58,	13.66,	1698,	1689
49,	8166,	7802,	8217,	8436,	8939,	8524,	8587,	8381,	8304,	8194,	8925,	8815,	8390,	8997,	15.13,	14.04,	14.90,	1.78,	13.48,	2.15,	2.19,	12.28,	12.15,	12.43,	14.70,	14.03,	14.58,	13.66,	1698,	1689
50,	8174,	7809,	8217,	8441,	8939,	8528,	8586,	8402,	8318,	8213,	8943,	8827,	8394,	9005,	15.13,	14.04,	14.90,	1.78,	13.48,	2.15,	2.19,	12.28,	12.15,	12.43,	14.70,	14.03,	14.58,	13.66,	1697,	1689
51,	8161,	7788,	8193,	8421,	8936,	8499,	8539,	8371,	8299,	8205,	8937,	8808,	8383,	8983,	15.13,	14.04,	14.90,	1.78,	13.48,	2.15,	2.19,	12.28,	12.15,	12.43,	14.70,	14.03,	14.58,	13.66,	1697,	1687
52,	8139,	7769,	8180,	8401,	8938,	8491,	8534,	8344,	8273,	8164,	8919,	8787,	8368,	8964,	15.13,	14.04,	14.90,	1.78,	13.48,	2.15,	2.19,	12.28,	12.15,	12.43,	14.70,	14.03,	14.58,	13.66,	1696,	1687
53,	8133,	7774,	8195,	8411,	8944,	8500,	8542,	8361,	8275,	8167,	8927,	8796,	8366,	8967,	15.13,	14.04,	14.90,	1.78,	13.48,	2.15,	2.19,	12.28,	12.15,	12.43,	14.70,	14.03,	14.58,	13.66,	1696,	1687
54,	8139,	7784,	8208,	8419,	8939,	8500,	8540,	8386,	8295,	8195,	8954,	8823,	8382,	8974,	15.13,	14.04,	14.90,	1.78,	13.48,	2.15,	2.19,	12.28,	12.15,	12.43,	14.70,	14.03,	14.58,	13.66,	1695,	1687
55,	8139,	7774,	8204,	8409,	8922,	8491,	8542,	8365,	8292,	8184,	8947,	8816,	8385,	8962,	15.13,	14.04,	14.90,	1.78,	13.48,	2.15,	2.19,	12.28,	12.15,	12.43,	14.70,	14.03,	14.58,	13.66,	1695,	1686
56,	8123,	7754,	8183,	8395,	8913,	8483,	8529,	8305,	8247,	8151,	8893,	8777,	8346,	8938,	15.13,	14.04,	14.90,	1.78,	13.48,	2.15,	2.19,	12.28,	12.15,	12.43,	14.70,	14.03,	14.58,	13.66,	1694,	1688
57,	8103,	7744,	8160,	8385,	8912,	8489,	8512,	8270,	8216,	8127,	8879,	8765,	8316,	8927,	15.13,	14.04,	14.90,	1.78,	13.48,	2.15,	2.19,	12.28,	12.15,	12.43,	14.70,	14.03,	14.58,	13.66,	1695,	1688
58,	8103,	7748,	8165,	8374,	8911,	8493,	8501,	8277,	8231,	8124,	8936,	8788,	8347,	8937,	15.13,	14.04,	14.90,	1.78,	13.48,	2.15,	2.19,	12.28,	12.15,	12.43,	14.70,	14.03,	14.58,	13.66,	1695,	1688
59,	8121,	7751,	8183,	8374,	8928,	8496,	8499,	8296,	8256,	8144,	8969,	8804,	8378,	8952,	15.13,	14.04,	14.90,	1.78,	13.48,	2.15,	2.19,	12.28,	12.15,	12.43,	14.70,	14.03,	14.58,	13.66,	1694,	1688
60,	8144,	7766,	8201,	8392,	8964,	8535,	8550,	8320,	8267,	8176,	8961,	8819,	8381,	8971,	15.13,	14.04,	14.90,	1.78,	13.48,	2.15,	2.19,	12.28,	12.15,	12.43,	14.70,	14.03,	14.58,	13.66,	1694,	1688
61,	8161,	7790,	8219,	8408,	8973,	8565,	8595,	8357,	8284,	8218,	8973,	8843,	8396,	8996,	15.13,	14.04,	14.90,	1.78,	13.48,	2.15,	2.19,	12.28,	12.15,	12.43,	14.70,	14.03,	14.58,	13.66,	1694,	1689
62,	8168,	7789,	8227,	8408,	8955,	8536,	8553,	8363,	8306,	8238,	8980,	8850,	8413,	9006,	15.13,	14.04,	14.90,	1.78,	13.48,	2.15,	2.19,	12.28,	12.15,	12.43,	14.70,	14.03,	14.58,	13.66,	1695,	1687
63,	8165,	7777,	8228,	8404,	8941,	8506,	8505,	8348,	8314,	8228,	8968,	8834,	8408,	9002,	15.13,	14.04,	14.90,	1.78,	13.48,	2.15,	2.19,	12.28,	12.15,	12.43,	14.70,	14.03,	14.58,	13.66,	1693,	1688
64,	8164,	7780,	8221,	8401,	8935,	8512,	8517,	8360,	8310,	8220,	8968,	8829,	8403,	8996,	15.13,	14.04,	14.90,	1.78,	13.48,	2.15,	2.19,	12.28,	12.15,	12.43,	14.70,	14.03,	14.58,	13.66,	1694,	1687
65,	8177,	7796,	8223,	8411,	8957,	8532,	8562,	8372,	8313,	8221,	8979,	8842,	8416,	9003,	15.13,	14.07,	14.90,	1.78,	13.48,	2.15,	2.19,	12.28,	12.15,	12.43,	14.70,	14.03,	14.58,	13.66,	1694,	1686
66,	8199,	7814,	8246,	8436,	8995,	8565,	8621,	8387,	8333,	8237,	8989,	8856,	8439,	9025,	15.13,	14.07,	14.89,	1.78,	13.48,	2.15,	2.19,	12.28,	12.15,	12.43,	14.70,	14.03,	14.58,	13.66,	1694,	1686
67,	8199,	7807,	8243,	8433,	8996,	8576,	8639,	8414,	8339,	8255,	8984,	8854,	8440,	9027,	15.13,	14.07,	14.89,	1.82,	13.48,	2.15,	2.19,	12.28,	12.15,	12.43,	14.70,	14.03,	14.58,	13.66,	1694,	1686
68,	8172,	7784,	8217,	8402,	8955,	8534,	8584,	8408,	8321,	8256,	8973,	8847,	8416,	9007,	15.13,	14.07,	14.89,	1.82,	13.45,	2.15,	2.19,	12.28,	12.15,	12.43,	14.70,	14.03,	14.58,	13.66,	1694,	1685
69,	8154,	7763,	8208,	8384,	8914,	8501,	8543,	8370,	8310,	8233,	8970,	8834,	8404,	8988,	15.13,	14.07,	14.89,	1.82,	13.45,	2.18,	2.19,	12.28,	12.15,	12.43,	14.70,	14.03,	14.58,	13.66,	1694,	1685
70,	8151,	7750,	8205,	8387,	8912,	8520,	8568,	8384,	8323,	8224,	8972,	8824,	8419,	8982,	15.13,	14.07,	14.89,	1.82,	13.45,	2.18,	2.19,	12.28,	12.15,	12.43,	14.70,	14.03,	14.58,	13.66,	1694,	1687
71,	8156,	7765,	8211,	8403,	8936,	8547,	8595,	8431,	8351,	8250,	8983,	8842,	8437,	8993,	15.13,	14.07,	14.89,	1.82,	13.45,	2.18,	2.19,	12.31,	12.15,	12.43,	14.70,	14.03,	14.58,	13.66,	1694,	1685
72,	8160,	7788,	8225,	8417,	8953,	8542,	8577,	8416,	8350,	8243,	8978,	8854,	8425,	8999,	15.13,	14.07,	14.89,	1.82,	13.45,	2.18,	2.19,	12.31,	12.16,	12.43,	14.70,	14.03,	14.58,	13.66,	1693,	1687
73,	8137,	7767,	8211,	8404,	8945,	8506,	8527,	8367,	8315,	8195,	8947,	8823,	8399,	8976,	15.13,	14.07,	14.89,	1.82,	13.45,	2.18,	2.19,	12.31,	12.16,	12.43,	14.70,	14.03,	14.58,	13.66,	1694,	1684
74,	8113,	7747,	8194,	8389,	8932,	8484,	8498,	8360,	8308,	8210,	8944,	8803,	8396,	8957,	15.13,	14.07,	14.89,	1.82,	13.45,	2.18,	2.19,	12.31,	12.16,	12.43,	14.73,	14.03,	14.58,	13.66,	1694,	1685
75,	8137,	7779,	8220,	8405,	8948,	8521,	8541,	8399,	8352,	8285,	8977,	8836,	8417,	8979,	15.13,	14.07,	14.89,	1.82,	13.45,	2.18,	2.19,	12.31,	12.16,	12.43,	14.73,	14.00,	14.58,	13.66,	1695,	1684
76,	8166,	7797,	8237,	8419,	8962,	8549,	8568,	8410,	8365,	8295,	8982,	8856,	8425,	8996,	15.13,	14.07,	14.89,	1.82,	13.45,	2.18,	2.19,	12.31,	12.16,	12.43,	14.73,	14.00,	14.58,	13.66,	1694,	1684
77,	8142,	7775,	8213,	8410,	8948,	8512,	8517,	8371,	8330,	8256,	8957,	8829,	8413,	8981,	15.13,	14.07,	14.89,	1.82,	13.45,	2.18,	2.19,	12.31,	12.16,	12.43,	14.73,	14.00,	14.58,	13.64,	1696,	1684
78,	8120,	7767,	8191,	8398,	8933,	8481,	8488,	8342,	8310,	8245,	8941,	8814,	8401,	8964,	15.13,	14.07,	14.89,	1.82,	13.45,	2.18,	2.19,	12.31,	12.16,	12.43,	14.70,	14.00,	14.58,	13.64,	1695,	1683
79,	8143,	7779,	8198,	8400,	8939,	8496,	8514,	8339,	8309,	8228,	8940,	8837,	8402,	8973,	15.13,	14.07,	14.89,	1.82,	13.45,	2.18,	2.19,	12.31,	12.16,	12.43,	14.70,	14.01,	14.58,	13.64,	1696,	1685
80,	8170,	7782,	8221,	8413,	8944,	8507,	8525,	8350,	8323,	8216,	8954,	8856,	8424,	9001,	15.13,	14.07,	14.89,	1.82,	13.45,	2.18,	2.19,	12.31,	12.16,	12.43,	14.70,	14.01,	14.59,	13.64,	1696,	1685
81,	8169,	7781,	8224,	8421,	8944,	8504,	8519,	8357,	8339,	8251,	8972,	8853,	8439,	9011,	15.13,	14.07,	14.89,	1.82,	13.45,	2.18,	2.19,	12.31,	12.16,	12.43,	14.70,	14.01,	14.59,	13.67,	1696,	1686
82,	8163,	7778,	8213,	8408,	8946,	8511,	8544,	8348,	8330,	8273,	8970,	8847,	8428,	9003,	15.13,	14.07,	14.89,	1.82,	13.45,	2.18,	2.19,	12.31,	12.16,	12.43,	14.70,	14.01,	14.59,	13.67,	1696,	1686
83,	8169,	7777,	8220,	8399,	8943,	8522,	8555,	8339,	8320,	8262,	8963,	8858,	8421,	9008,	15.13,	14.07,	14.89,	1.82,	13.45,	2.18,	2.19,	12.31,	12.16,	12.43,	14.70,	14.03,	14.59,	13.67,	1695,	1688
84,	8182,	7787,	8237,	8420,	8951,	8523,	8533,	8358,	8343,	8273,	8975,	8877,	8441,	9025,	15.13,	14.07,	14.89,	1.82,	13.45,	2.18,	2.19,	12.31,	12.16,	12.43,	14.70,	14.03,	14.59,	13.67,	1697,	1687
85,	8180,	7787,	8224,	8432,	8954,	8521,	8537,	8382,	8358,	8281,	8982,	8869,	8447,	9020,	15.13,	14.07,	14.89,	1.82,	13.45,	2.18,	2.19,	12.31,	12.16,	12.43,	14.70,	14.03,	14.59,	13.64,	1695,	1688
86,	8163,	7783,	8204,	8421,	8937,	8520,	8560,	8378,	8343,	8250,	8971,	8848,	8433,	9010,	15.13,	14.07,	14.89,	1.82,	13.45,	2.18,	2.19,	12.31,	12.16,	12.43,	14.70,	14.03,	14.59,	13.64,	1697,	1687
87,	8158,	7793,	8204,	8419,	8939,	8508,	8544,	8373,	8344,	8239,	8973,	8849,	8437,	9007,	15.13,	14.07,	14.89,	1.82,	13.45,	2.18,	2.19,	12.31,	12.16,	12.43,	14.70,	13.99,	14.59,	13.64,	1697,	1687
88,	8164,	7796,	8201,	8425,	8966,	8501,	8523,	8377,	8347,	8270,	8970,	8854,	8441,	8987,	15.13,	14.07,	14.89,	1.82,	13.45,	2.18,	2.19,	12.31,	12.16,	12.43,	14.70,	13.99,	14.62,	13.64,	1696,	1687
89,	8161,	7785,	8187,	8420,	8970,	8513,	8535,	8373,	8339,	8290,	8950,	8840,	8426,	8975,	15.13,	14.07,	14.89,	1.82,	13.45,	2.18,	2.19,	12.31,	12.16,	12.43,	14.70,	13.99,	14.62,	13.67,	1696,	1686
90,	8153,	7778,	8183,	8410,	8945,	8515,	8540,	8375,	8348,	8287,	8945,	8841,	8420,	8991,	15.13,	14.07,	14.89,	1.82,	13.45,	2.18,	2.19,	12.31,	12.16,	12.43,	14.70,	13.99,	14.62,	13.67,	1696,	1687
91,	8168,	7785,	8197,	8419,	8946,	8518,	8545,	8406,	8373,	8283,	8965,	8865,	8437,	9009,	15.13,	14.07,	14.89,	1.82,	13.45,	2.18,	2.19,	12.31,	12.16,	12.43,	14.70,	14.00,	14.62,	13.67,	1696,	1686
92,	8191,	7799,	8211,	8440,	8961,	8538,	8563,	8420,	8382,	8269,	8977,	8872,	8444,	9009,	15.13,	14.07,	14.89,	1.82,	13.45,	2.18,	2.19,	12.31,	12.16,	12.43,	14.70,	14.00,	14.62,	13.67,	1696,	1687
93,	8180,	7798,	8205,	8439,	8948,	8521,	8529,	8388,	8365,	8259,	8961,	8852,	8429,	8996,	15.13,	14.07,	14.89,	1.82,	13.45,	2.18,	2.19,	12.31,	12.16,	12.43,	14.70,	14.00,	14.62,	13.64,	1696,	1686
94,	8159,	7788,	8192,	8422,	8937,	8494,	8497,	8375,	8350,	8256,	8942,	8839,	8415,	8984,	15.13,	14.07,	14.89,	1.82,	13.45,	2.18,	2.19,	12.31,	12.16,	12.43,	14.71,	14.00,	14.62,	13.64,	1696,	1686
95,	8168,	7792,	8197,	8424,	8951,	8521,	8547,	8400,	8351,	8236,	8944,	8845,	8413,	8984,	15.13,	14.07,	14.89,	1.82,	13.45,	2.18,	2.19,	12.31,	12.16,	12.43,	14.71,	14.03,	14.62,	13.64,	1696,	1685
96,	8186,	7791,	8204,	8427,	8955,	8542,	8581,	8413,	8361,	8236,	8950,	8851,	8418,	8996,	15.13,	14.07,	14.89,	1.82,	13.45,	2.18,	2.19,	12.31,	12.16,	12.43,	14.71,	14.03,	14.59,	13.64,	1696,	1686
97,	8182,	7779,	8191,	8406,	8951,	8522,	8548,	8404,	8366,	8284,	8944,	8852,	8418,	9005,	15.13,	14.07,	14.89,	1.82,	13.45,	2.18,	2.19,	12.31,	12.16,	12.43,	14.71,	14.03,	14.59,	13.63,	1696,	1686
98,	8170,	7787,	8188,	8414,	8955,	8524,	8541,	8377,	8354,	8285,	8937,	8852,	8409,	9001,	15.13,	14.07,	14.89,	1.82,	13.45,	2.18,	2.19,	12.31,	12.16,	12.43,	14.71,	14.03,	14.59,	13.63,	1696,	1686
99,	8166,	7799,	8198,	8447,	8967,	8551,	8568,	8349,	8339,	8223,	8944,	8847,	8403,	8984,	15.13,	14.07,	14.89,	1.82,	13.45,	2.18,	2.19,	12.31,	12.16,	12.43,	14.71,	13.99,	14.59,	13.63,	1696,	1686
100,	8158,	7787,	8181,	8438,	8970,	8542,	8547,	8353,	8338,	8212,	8940,	8833,	8400,	8968,	15.13,	14.07,	14.89,	1.82,	13.45,	2.18,	2.19,	12.31,	12.16,	12.43,	14.71,	13.99,	14.62,	13.63,	1696,	1687
101,	8135,	7775,	8155,	8404,	8952,	8528,	8537,	8373,	8339,	8233,	8920,	8818,	8387,	8962,	15.13,	14.07,	14.89,	1.82,	13.45,	2.18,	2.19,	12.31,	12.16,	12.43,	14.71,	13.99,	14.62,	13.64,	1696,	1686
102,	8133,	7777,	8152,	8405,	8945,	8546,	8576,	8384,	8348,	8224,	8907,	8817,	8378,	8964,	15.13,	14.07,	14.89,	1.82,	13.45,	2.18,	2.19,	12.31,	12.16,	12.43,	14.70,	13.99,	14.62,	13.64,	1695,	1687
103,	8153,	7781,	8157,	8424,	8960,	8543,	8561,	8381,	8357,	8225,	8915,	8823,	8391,	8974,	15.13,	14.07,	14.89,	1.82,	13.45,	2.18,	2.19,	12.31,	12.16,	12.43,	14.70,	14.00,	14.62,	13.64,	1696,	1685
104,	8156,	7786,	8163,	8428,	8957,	8520,	8526,	8363,	8341,	8241,	8930,	8833,	8399,	8972,	15.13,	14.07,	14.89,	1.82,	13.45,	2.18,	2.19,	12.31,	12.16,	12.43,	14.70,	14.00,	14.61,	13.64,	1694,	1685
105,	8164,	7802,	8179,	8432,	8938,	8542,	8568,	8380,	8349,	8261,	8940,	8849,	8406,	8982,	15.13,	14.07,	14.89,	1.82,	13.45,	2.18,	2.19,	12.31,	12.16,	12.43,	14.70,	14.00,	14.61,	13.63,	1696,	1685
106,	8186,	7813,	8188,	8443,	8949,	8572,	8602,	8434,	8397,	8286,	8949,	8859,	8424,	9007,	15.13,	14.07,	14.89,	1.82,	13.45,	2.18,	2.19,	12.31,	12.16,	12.43,	14.73,	14.00,	14.61,	13.63,	1696,	1684
107,	8174,	7798,	8180,	8433,	8970,	8538,	8545,	8407,	8381,	8273,	8945,	8857,	8422,	9002,	15.13,	14.07,	14.89,	1.82,	13.45,	2.18,	2.19,	12.31,	12.16,	12.43,	14.73,	14.00,	14.61,	13.63,	1695,	1686
108,	8148,	7773,	8162,	8407,	8959,	8487,	8487,	8309,	8309,	8230,	8921,	8844,	8392,	8970,	15.13,	14.07,	14.89,	1.82,	13.45,	2.18,	2.19,	12.31,	12.16,	12.43,	14.73,	14.00,	14.62,	13.63,	1695,	1685
109,	8150,	7764,	8155,	8402,	8934,	8479,	8488,	8296,	8300,	8219,	8907,	8831,	8381,	8963,	15.13,	14.07,	14.89,	1.82,	13.45,	2.18,	2.19,	12.31,	12.16,	12.43,	14.73,	14.00,	14.62,	13.63,	1694,	1686
110,	8162,	7780,	8171,	8421,	8934,	8502,	8519,	8360,	8340,	8227,	8924,	8840,	8408,	8982,	15.13,	14.07,	14.89,	1.82,	13.45,	2.18,	2.19,	12.31,	12.16,	12.43,	14.74,	14.00,	14.62,	13.63,	1694,	1686
111,	8169,	7802,	8185,	8437,	8955,	8533,	8556,	8391,	8356,	8236,	8948,	8860,	8430,	9002,	15.13,	14.07,	14.89,	1.82,	13.45,	2.18,	2.19,	12.31,	12.16,	12.43,	14.74,	13.99,	14.62,	13.63,	1694,	1686
112,	8171,	7812,	8182,	8440,	8955,	8539,	8556,	8397,	8367,	8258,	8946,	8862,	8427,	9007,	15.13,	14.07,	14.89,	1.82,	13.45,	2.18,	2.19,	12.31,	12.16,	12.43,	14.74,	13.99,	14.58,	13.63,	1694,	1686
113,	8165,	7808,	8175,	8437,	8939,	8536,	8546,	8399,	8367,	8262,	8924,	8847,	8408,	8987,	15.13,	14.07,	14.89,	1.82,	13.45,	2.18,	2.19,	12.31,	12.16,	12.43,	14.74,	13.99,	14.58,	13.66,	1692,	1686
114,	8159,	7797,	8172,	8432,	8952,	8545,	8560,	8379,	8346,	8244,	8910,	8843,	8399,	8969,	15.13,	14.07,	14.89,	1.82,	13.45,	2.18,	2.19,	12.31,	12.16,	12.43,	14.70,	13.99,	14.58,	13.66,	1695,	1685
115,	8160,	7796,	8164,	8430,	8977,	8548,	8567,	8391,	8353,	8233,	8919,	8850,	8410,	8979,	15.13,	14.07,	14.89,	1.82,	13.45,	2.18,	2.19,	12.31,	12.16,	12.43,	14.70,	14.03,	14.58,	13.66,	1693,	1686
116,	8138,	7781,	8147,	8417,	8960,	8515,	8531,	8403,	8361,	8224,	8916,	8838,	8396,	8966,	15.13,	14.07,	14.89,	1.82,	13.45,	2.18,	2.19,	12.31,	12.16,	12.43,	14.70,	14.03,	14.62,	13.66,	1694,	1686
117,	8105,	7753,	8122,	8398,	8920,	8477,	8491,	8337,	8327,	8218,	8882,	8795,	8352,	8922,	15.13,	14.07,	14.89,	1.82,	13.45,	2.18,	2.19,	12.31,	12.16,	12.43,	14.70,	14.03,	14.62,	13.67,	1694,	1685
118,	8112,	7757,	8117,	8404,	8923,	8489,	8496,	8284,	8302,	8223,	8873,	8780,	8348,	8910,	15.13,	14.07,	14.89,	1.82,	13.45,	2.18,	2.19,	12.31,	12.16,	12.43,	14.70,	14.03,	14.62,	13.67,	1694,	1687
119,	8135,	7784,	8134,	8428,	8951,	8519,	8513,	8318,	8317,	8222,	8902,	8811,	8381,	8939,	15.13,	14.07,	14.89,	1.82,	13.45,	2.18,	2.19,	12.31,	12.16,	12.43,	14.70,	14.00,	14.62,	13.67,	1695,	1686
120,	8130,	7781,	8144,	8425,	8946,	8508,	8509,	8347,	8335,	8221,	8917,	8828,	8387,	8953,	15.13,	14.07,	14.89,	1.82,	13.45,	2.18,	2.19,	12.31,	12.16,	12.43,	14.70,	14.00,	14.59,	13.67,	1695,	1688
121,	8134,	7770,	8144,	8410,	8925,	8490,	8511,	8353,	8342,	8223,	8909,	8821,	8381,	8957,	15.13,	14.07,	14.89,	1.82,	13.45,	2.18,	2.19,	12.31,	12.16,	12.43,	14.70,	14.00,	14.59,	13.67,	1695,	1687
122,	8158,	7785,	8146,	8417,	8934,	8501,	8527,	8372,	8348,	8224,	8901,	8827,	8392,	8968,	15.13,	14.07,	14.89,	1.82,	13.45,	2.18,	2.19,	12.31,	12.16,	12.43,	14.74,	14.00,	14.59,	13.67,	1696,	1688
123,	8171,	7801,	8166,	8439,	8963,	8519,	8542,	8376,	8361,	8235,	8915,	8851,	8404,	8982,	15.13,	14.07,	14.89,	1.82,	13.45,	2.18,	2.19,	12.31,	12.16,	12.43,	14.74,	14.01,	14.59,	13.67,	1696,	1689
124,	8187,	7813,	8196,	8453,	8981,	8538,	8562,	8389,	8379,	8264,	8945,	8877,	8429,	9008,	15.13,	14.07,	14.89,	1.82,	13.45,	2.18,	2.19,	12.31,	12.16,	12.43,	14.74,	14.01,	14.61,	13.67,	1695,	1690
125,	8198,	7813,	8200,	8447,	8977,	8544,	8572,	8399,	8382,	8279,	8952,	8886,	8437,	9022,	15.13,	14.07,	14.89,	1.82,	13.45,	2.18,	2.19,	12.31,	12.16,	12.43,	14.74,	14.01,	14.61,	13.63,	1697,	1691
126,	8190,	7807,	8184,	8435,	8968,	8535,	8563,	8377,	8368,	8267,	8940,	8881,	8421,	9008,	15.13,	14.07,	14.89,	1.82,	13.45,	2.18,	2.19,	12.31,	12.16,	12.43,	14.74,	14.01,	14.61,	13.63,	1696,	1691
127,	8192,	7809,	8188,	8435,	8970,	8546,	8571,	8384,	8373,	8259,	8942,	8879,	8429,	9006,	15.13,	14.07,	14.89,	1.82,	13.45,	2.18,	2.19,	12.31,	12.16,	12.43,	14.74,	14.03,	14.61,	13.63,	1696,	1691
0,	8168,	7783,	8172,	8424,	8938,	8518,	8535,	8386,	8372,	8252,	8915,	8848,	8405,	8996,	15.16,	14.07,	14.89,	1.82,	13.45,	2.18,	2.19,	12.31,	12.16,	12.43,	14.74,	14.03,	14.61,	13.63,	1695,	1691
1,	8179,	7815,	8192,	8445,	8970,	8531,	8552,	8370,	8384,	8282,	8941,	8869,	8413,	8998,	15.16,	14.04,	14.89,	1.82,	13.45,	2.18,	2.19,	12.31,	12.16,	12.43,	14.74,	14.03,	14.61,	13.63,	1696,	1689
2,	8189,	7831,	8208,	8464,	8998,	8550,	8575,	8390,	8401,	8296,	8955,	8888,	8437,	9005,	15.16,	14.04,	14.92,	1.82,	13.45,	2.18,	2.19,	12.31,	12.16,	12.43,	14.74,	14.03,	14.61,	13.63,	1695,	1690
3,	8184,	7818,	8198,	8465,	8995,	8544,	8570,	8389,	8395,	8281,	8943,	8868,	8432,	9003,	15.16,	14.04,	14.92,	1.81,	13.45,	2.18,	2.19,	12.31,	12.16,	12.43,	14.74,	14.03,	14.61,	13.63,	1695,	1689
4,	8185,	7824,	8191,	8476,	9000,	8545,	8565,	8368,	8375,	8276,	8946,	8854,	8423,	8998,	15.16,	14.04,	14.92,	1.81,	13.47,	2.18,	2.19,	12.31,	12.16,	12.43,	14.74,	14.03,	14.61,	13.63,	1695,	1690
5,	8141,	7804,	8154,	8446,	8975,	8524,	8524,	8317,	8321,	8224,	8909,	8820,	8386,	8950,	15.16,	14.04,	14.92,	1.81,	13.47,	2.13,	2.19,	12.31,	12.16,	12.43,	14.74,	14.03,	14.61,	13.63,	1696,	1690
6,	8064,	7737,	8079,	8364,	8906,	8477,	8461,	8250,	8248,	8130,	8829,	8751,	8310,	8877,	15.16,	14.04,	14.92,	1.81,	13.47,	2.13,	2.21,	12.31,	12.16,	12.43,	14.74,	14.03,	14.61,	13.63,	1695,	1690
7,	8041,	7695,	8047,	8322,	8884,	8460,	8458,	8247,	8240,	8120,	8790,	8721,	8272,	8854,	15.16,	14.04,	14.92,	1.81,	13.47,	2.13,	2.21,	12.30,	12.16,	12.43,	14.74,	14.03,	14.61,	13.63,	1696,	1690
8,	8072,	7711,	8072,	8343,	8918,	8478,	8483,	8299,	8292,	8161,	8805,	8744,	8293,	8879,	15.16,	14.04,	14.92,	1.81,	13.47,	2.13,	2.21,	12.30,	12.19,	12.43,	14.74,	14.03,	14.61,	13.63,	1695,	1690
9,	8122,	7761,	8128,	8387,	8947,	8508,	8495,	8347,	8352,	8199,	8863,	8795,	8351,	8929,	15.16,	14.04,	14.92,	1.81,	13.47,	2.13,	2.21,	12.30,	12.19,	12.43,	14.74,	14.03,	14.61,	13.63,	1696,	1691
10,	8194,	7824,	8204,	8451,	8987,	8557,	8540,	8397,	8419,	8285,	8952,	8875,	8433,	9007,	15.16,	14.04,	14.92,	1.81,	13.47,	2.13,	2.21,	12.30,	12.19,	12.43,	14.70,	14.03,	14.61,	13.63,	1696,	1689
11,	8229,	7850,	8243,	8488,	9013,	8569,	8551,	8397,	8439,	8354,	9001,	8925,	8478,	9050,	15.16,	14.04,	14.92,	1.81,	13.47,	2.13,	2.21,	12.30,	12.19,	12.43,	14.70,	14.03,	14.61,	13.63,	1695,	1690
12,	8205,	7830,	8232,	8476,	8992,	8531,	8510,	8349,	8409,	8321,	8987,	8905,	8458,	9024,	15.16,	14.04,	14.92,	1.81,	13.47,	2.13,	2.21,	12.30,	12.19,	12.43,	14.70,	14.03,	14.61,	13.63,	1696,	1686
13,	8191,	7815,	8214,	8460,	8969,	8526,	8522,	8357,	8401,	8272,	8958,	8877,	8422,	8998,	15.16,	14.04,	14.92,	1.81,	13.47,	2.13,	2.21,	12.30,	12.19,	12.43,	14.70,	14.03,	14.61,	13.66,	1695,	1687
14,	8194,	7822,	8213,	8464,	8971,	8546,	8551,	8370,	8397,	8279,	8943,	8875,	8411,	9002,	15.16,	14.04,	14.92,	1.81,	13.47,	2.13,	2.21,	12.30,	12.19,	12.43,	14.74,	14.03,	14.61,	13.66,	1697,	1686
15,	8201,	7841,	8238,	8484,	8980,	8540,	8536,	8347,	8391,	8305,	8961,	8891,	8434,	9013,	15.16,	14.04,	14.92,	1.81,	13.47,	2.13,	2.21,	12.30,	12.19,	12.43,	14.74,	13.99,	14.61,	13.66,	1696,	1686
16,	8204,	7834,	8249,	8478,	8973,	8515,	8516,	8350,	8395,	8293,	8981,	8900,	8447,	9013,	15.16,	14.04,	14.92,	1.81,	13.47,	2.13,	2.21,	12.30,	12.19,	12.43,	14.74,	13.99,	14.61,	13.66,	1697,	1686
17,	8173,	7796,	8215,	8437,	8955,	8490,	8488,	8333,	8370,	8255,	8948,	8873,	8415,	8987,	15.16,	14.04,	14.92,	1.81,	13.47,	2.13,	2.21,	12.30,	12.19,	12.43,	14.74,	13.99,	14.61,	13.66,	1697,	1687
18,	8138,	7774,	8187,	8420,	8945,	8465,	8446,	8286,	8334,	8244,	8912,	8841,	8377,	8957,	15.16,	14.04,	14.92,	1.81,	13.47,	2.13,	2.21,	12.30,	12.19,	12.43,	14.74,	13.99,	14.61,	13.66,	1697,	1686
19,	8137,	7779,	8189,	8436,	8945,	8474,	8461,	8295,	8339,	8252,	8906,	8823,	8372,	8943,	15.16,	14.04,	14.92,	1.81,	13.47,	2.13,	2.21,	12.30,	12.19,	12.43,	14.74,	13.99,	14.61,	13.66,	1697,	1687
20,	8152,	7788,	8190,	8438,	8964,	8529,	8547,	8348,	8365,	8248,	8913,	8821,	8389,	8951,	15.16,	14.04,	14.92,	1.81,	13.47,	2.13,	2.21,	12.30,	12.19,	12.43,	14.74,	13.99,	14.61,	13.66,	1697,	1689
21,	8148,	7793,	8196,	8432,	8977,	8557,	8586,	8377,	8385,	8249,	8925,	8842,	8402,	8966,	15.16,	14.04,	14.92,	1.81,	13.47,	2.13,	2.21,	12.30,	12.19,	12.43,	14.74,	13.99,	14.61,	13.66,	1696,	1690
22,	8139,	7787,	8201,	8431,	8957,	8521,	8524,	8361,	8378,	8254,	8928,	8849,	8393,	8958,	15.16,	14.04,	14.92,	1.81,	13.47,	2.13,	2.21,	12.30,	12.19,	12.43,	14.74,	13.99,	14.61,	13.66,	1696,	1690
23,	8128,	7775,	8192,	8427,	8935,	8477,	8458,	8315,	8346,	8252,	8922,	8822,	8378,	8940,	15.16,	14.04,	14.92,	1.81,	13.47,	2.13,	2.21,	12.30,	12.19,	12.43,	14.74,	13.99,	14.61,	13.66,	1696,	1690
24,	8125,	7781,	8197,	8432,	8957,	8495,	8496,	8308,	8345,	8245,	8934,	8824,	8387,	8950,	15.16,	14.04,	14.92,	1.81,	13.47,	2.13,	2.21,	12.30,	12.19,	12.43,	14.74,	13.99,	14.61,	13.66,	1696,	1688
25,	8147,	7800,	8211,	8442,	8977,	8533,	8557,	8351,	8370,	8221,	8947,	8850,	8400,	8974,	15.16,	14.04,	14.92,	1.81,	13.47,	2.13,	2.21,	12.30,	12.19,	12.43,	14.74,	13.99,	14.61,	13.66,	1696,	1687
26,	8162,	7810,	8219,	8444,	8969,	8533,	8543,	8364,	8376,	8210,	8944,	8857,	8392,	8974,	15.16,	14.04,	14.92,	1.81,	13.47,	2.13,	2.21,	12.30,	12.19,	12.43,	14.74,	13.99,	14.61,	13.66,	1696,	1685
27,	8145,	7804,	8219,	8442,	8966,	8518,	8519,	8351,	8368,	8236,	8943,	8848,	8380,	8957,	15.16,	14.04,	14.92,	1.81,	13.47,	2.13,	2.21,	12.30,	12.19,	12.43,	14.74,	13.99,	14.61,	13.66,	1695,	1685
28,	8124,	7782,	8203,	8430,	8954,	8497,	8500,	8331,	8348,	8231,	8943,	8825,	8369,	8939,	15.16,	14.04,	14.92,	1.81,	13.47,	2.13,	2.21,	12.30,	12.19,	12.43,	14.74,	13.99,	14.61,	13.66,	1696,	1686
29,	8126,	7771,	8199,	8426,	8943,	8490,	8480,	8297,	8322,	8194,	8940,	8823,	8369,	8939,	15.16,	14.04,	14.92,	1.81,	13.47,	2.13,	2.21,	12.30,	12.19,	12.43,	14.74,	13.99,	14.61,	13.66,	1696,	1686
30,	8138,	7778,	8221,	8430,	8945,	8499,	8487,	8281,	8316,	8188,	8950,	8847,	8378,	8957,	15.16,	14.04,	14.92,	1.81,	13.47,	2.13,	2.21,	12.30,	12.19,	12.43,	14.74,	13.99,	14.61,	13.66,	1695,	1688
31,	8134,	7774,	8217,	8417,	8937,	8495,	8488,	8280,	8310,	8196,	8942,	8835,	8358,	8954,	15.16,	14.04,	14.92,	1.81,	13.47,	2.13,	2.21,	12.30,	12.19,	12.43,	14.74,	13.99,	14.61,	13.66,	1696,	1686
32,	8127,	7769,	8199,	8415,	8944,	8499,	8493,	8287,	8301,	8186,	8911,	8804,	8333,	8933,	15.16,	14.04,	14.92,	1.81,	13.47,	2.13,	2.21,	12.30,	12.19,	12.43,	14.74,	13.99,	14.61,	13.66,	1695,	1688
33,	8134,	7782,	8216,	8441,	8976,	8529,	8529,	8321,	8327,	8183,	8916,	8814,	8345,	8938,	15.16,	14.04,	14.92,	1.81,	13.47,	2.13,	2.21,	12.30,	12.19,	12.43,	14.74,	13.99,	14.61,	13.66,	1696,	1687
34,	8137,	7784,	8234,	8441,	8974,	8529,	8531,	8345,	8342,	8196,	8942,	8827,	8362,	8943,	15.16,	14.04,	14.92,	1.81,	13.47,	2.13,	2.21,	12.30,	12.19,	12.43,	14.74,	13.99,	14.61,	13.66,	1696,	1686
35,	8120,	7769,	8216,	8409,	8941,	8495,	8500,	8340,	8319,	8191,	8928,	8813,	8349,	8925,	15.16,	14.04,	14.92,	1.81,	13.47,	2.13,	2.21,	12.30,	12.19,	12.43,	14.74,	13.99,	14.61,	13.66,	1696,	1687
36,	8109,	7764,	8203,	8406,	8939,	8489,	8503,	8347,	8315,	8178,	8904,	8804,	8341,	8917,	15.16,	14.04,	14.92,	1.81,	13.47,	2.13,	2.21,	12.30,	12.19,	12.43,	14.74,	13.99,	14.61,	13.66,	1696,	1687
37,	8127,	7779,	8223,	8434,	8957,	8511,	8517,	8353,	8339,	8186,	8922,	8817,	8362,	8939,	15.16,	14.04,	14.92,	1.81,	13.47,	2.13,	2.21,	12.30,	12.19,	12.43,	14.74,	13.99,	14.61,	13.66,	1696,	1687
38,	8145,	7794,	8246,	8448,	8961,	8522,	8505,	8336,	8350,	8204,	8955,	8839,	8386,	8959,	15.16,	14.04,	14.92,	1.81,	13.47,	2.13,	2.21,	12.30,	12.19,	12.43,	14.74,	13.99,	14.61,	13.66,	1696,	1686
39,	8157,	7805,	8261,	8452,	8962,	8518,	8510,	8344,	8357,	8227,	8968,	8860,	8400,	8970,	15.16,	14.04,	14.92,	1.81,	13.47,	2.13,	2.21,	12.30,	12.19,	12.43,	14.74,	13.99,	14.61,	13.66,	1697,	1687
40,	8180,	7823,	8276,	8470,	8991,	8534,	8552,	8380,	8385,	8270,	8978,	8880,	8415,	8994,	15.16,	14.04,	14.92,	1.81,	13.47,	2.13,	2.21,	12.30,	12.19,	12.43,	14.74,	13.99,	14.61,	13.66,	1697,	1686
41,	8185,	7830,	8279,	8480,	9014,	8552,	8575,	8389,	8404,	8298,	8982,	8881,	8421,	9004,	15.16,	14.04,	14.92,	1.81,	13.47,	2.13,	2.21,	12.30,	12.19,	12.43,	14.74,	13.99,	14.61,	13.66,	1696,	1687
42,	8161,	7807,	8261,	8453,	8985,	8532,	8551,	8368,	8392,	8268,	8969,	8852,	8402,	8976,	15.16,	14.04,	14.92,	1.81,	13.47,	2.13,	2.21,	12.30,	12.19,	12.43,	14.74,	13.99,	14.61,	13.66,	1697,	1685
43,	8159,	7795,	8259,	8440,	8965,	8527,	8548,	8383,	8388,	8246,	8974,	8848,	8406,	8970,	15.16,	14.04,	14.92,	1.81,	13.47,	2.13,	2.21,	12.30,	12.19,	12.43,	14.74,	13.99,	14.61,	13.66,	1696,	1686
44,	8190,	7822,	8292,	8468,	9000,	8570,	8600,	8433,	8415,	8269,	9008,	8881,	8449,	9007,	15.16,	14.04,	14.92,	1.81,	13.47,	2.13,	2.21,	12.30,	12.19,	12.43,	14.74,	13.99,	14.61,	13.66,	1696,	1685
45,	8216,	7844,	8319,	8496,	9029,	8596,	8629,	8444,	8433,	8289,	9030,	8896,	8464,	9033,	15.16,	14.04,	14.92,	1.81,	13.47,	2.13,	2.21,	12.30,	12.19,	12.43,	14.74,	13.99,	14.61,	13.66,	1695,	1686
46,	8218,	7844,	8317,	8497,	9012,	8576,	8602,	8419,	8416,	8279,	9021,	8884,	8440,	9023,	15.16,	14.04,	14.92,	1.81,	13.47,	2.13,	2.21,	12.30,	12.19,	12.43,	14.74,	13.99,	14.61,	13.66,	1696,	1689
47,	8204,	7835,	8307,	8482,	8982,	8539,	8554,	8388,	8401,	8262,	9013,	8880,	8431,	9007,	15.16,	14.04,	14.92,	1.81,	13.47,	2.13,	2.21,	12.30,	12.19,	12.43,	14.74,	13.99,	14.61,	13.66,	1696,	1688
48,	8187,	7816,	8305,	8474,	8965,	8511,	8508,	8363,	8399,	8268,	9026,	8885,	8442,	9002,	15.16,	14.04,	14.92,	1.81,	13.47,	2.13,	2.21,	12.30,	12.19,	12.43,	14.74,	13.99,	14.61,	13.66,	1695,	1687
49,	8197,	7820,	8313,	8482,	8988,	8535,	8524,	8370,	8397,	8289,	9037,	8889,	8448,	9016,	15.16,	14.04,	14.92,	1.81,	13.47,	2.13,	2.21,	12.30,	12.19,	12.43,	14.74,	13.99,	14.61,	13.66,	1695,	1686
50,	8220,	7842,	8329,	8496,	9024,	8583,	8588,	8404,	8404,	8289,	9037,	8893,	8451,	9033,	15.16,	14.04,	14.92,	1.81,	13.47,	2.13,	2.21,	12.30,	12.19,	12.43,	14.74,	13.99,	14.61,	13.66,	1695,	1686
51,	8225,	7850,	8343,	8503,	9018,	8563,	8579,	8415,	8421,	8281,	9050,	8901,	8463,	9039,	15.16,	14.04,	14.92,	1.81,	13.47,	2.13,	2.21,	12.30,	12.19,	12.43,	14.74,	13.99,	14.61,	13.66,	1696,	1686
52,	8230,	7854,	8352,	8511,	8997,	8536,	8542,	8413,	8433,	8306,	9072,	8915,	8484,	9047,	15.16,	14.04,	14.92,	1.81,	13.47,	2.13,	2.21,	12.30,	12.19,	12.43,	14.74,	13.99,	14.61,	13.66,	1694,	1688
53,	8230,	7856,	8349,	8512,	9002,	8574,	8582,	8419,	8439,	8321,	9080,	8922,	8488,	9045,	15.16,	14.04,	14.92,	1.81,	13.47,	2.13,	2.21,	12.30,	12.19,	12.43,	14.74,	13.99,	14.61,	13.66,	1696,	1686
54,	8210,	7830,	8331,	8487,	9008,	8576,	8589,	8401,	8429,	8290,	9064,	8906,	8460,	9022,	15.16,	14.04,	14.92,	1.81,	13.47,	2.13,	2.21,	12.30,	12.19,	12.43,	14.74,	13.99,	14.61,	13.66,	1695,	1688
55,	8183,	7806,	8310,	8463,	8981,	8526,	8532,	8396,	8418,	8273,	9042,	8878,	8438,	9000,	15.16,	14.04,	14.92,	1.81,	13.47,	2.13,	2.21,	12.30,	12.19,	12.43,	14.74,	13.99,	14.61,	13.66,	1696,	1687
56,	8170,	7805,	8298,	8458,	8944,	8516,	8527,	8427,	8424,	8289,	9028,	8856,	8431,	8985,	15.16,	14.04,	14.92,	1.81,	13.47,	2.13,	2.21,	12.30,	12.19,	12.43,	14.74,	13.99,	14.61,	13.66,	1695,	1687
57,	8159,	7801,	8293,	8453,	8944,	8521,	8534,	8412,	8416,	8283,	9018,	8845,	8418,	8970,	15.16,	14.04,	14.92,	1.81,	13.47,	2.13,	2.21,	12.30,	12.19,	12.43,	14.74,	13.99,	14.61,	13.66,	1695,	1688
58,	8150,	7797,	8300,	8452,	8964,	8508,	8510,	8380,	8400,	8261,	9024,	8853,	8420,	8970,	15.16,	14.04,	14.92,	1.81,	13.47,	2.13,	2.21,	12.30,	12.19,	12.43,	14.74,	13.99,	14.61,	13.66,	1696,	1687
59,	8178,	7815,	8317,	8469,	8980,	8542,	8560,	8418,	8426,	8282,	9050,	8877,	8453,	8993,	15.16,	14.04,	14.92,	1.81,	13.47,	2.13,	2.21,	12.30,	12.19,	12.43,	14.74,	13.99,	14.61,	13.66,	1696,	1687
60,	8201,	7830,	8321,	8482,	9002,	8594,	8621,	8446,	8451,	8315,	9070,	8887,	8474,	9011,	15.16,	14.04,	14.92,	1.81,	13.47,	2.13,	2.21,	12.30,	12.19,	12.43,	14.74,	13.99,	14.61,	13.66,	1696,	1687
61,	8169,	7817,	8310,	8466,	8998,	8568,	8564,	8406,	8419,	8298,	9058,	8864,	8452,	8989,	15.16,	14.04,	14.92,	1.81,	13.47,	2.13,	2.21,	12.30,	12.19,	12.43,	14.74,	13.99,	14.61,	13.66,	1697,	1688
62,	8146,	7801,	8308,	8446,	8961,	8518,	8504,	8388,	8394,	8267,	9041,	8854,	8430,	8967,	15.16,	14.04,	14.92,	1.81,	13.47,	2.13,	2.21,	12.30,	12.19,	12.43,	14.74,	13.99,	14.61,	13.66,	1697,	1687
63,	8172,	7809,	8320,	8457,	8968,	8526,	8535,	8407,	8413,	8283,	9055,	8875,	8441,	8986,	15.16,	14.04,	14.92,	1.81,	13.47,	2.13,	2.21,	12.30,	12.19,	12.43,	14.74,	13.99,	14.61,	13.66,	1697,	1688
64,	8190,	7816,	8330,	8470,	9001,	8558,	8578,	8402,	8414,	8292,	9075,	8888,	8465,	9012,	15.11,	14.04,	14.87,	1.82,	13.45,	2.18,	2.24,	12.34,	12.15,	12.41,	14.71,	14.00,	14.62,	13.67,	1698,	1687
65,	8174,	7806,	8330,	8452,	8985,	8554,	8579,	8397,	8392,	8258,	9068,	8878,	8461,	9005,	15.11,	14.04,	14.87,	1.82,	13.45,	2.18,	2.24,	12.34,	12.15,	12.41,	14.71,	14.00,	14.62,	13.67,	1697,	1687
66,	8162,	7800,	8325,	8436,	8961,	8537,	8550,	8403,	8393,	8257,	9054,	8870,	8440,	8994,	15.11,	14.04,	14.87,	1.82,	13.45,	2.18,	2.24,	12.34,	12.15,	12.41,	14.71,	14.00,	14.62,	13.67,	1698,	1687
67,	8168,	7805,	8324,	8447,	8971,	8543,	8541,	8396,	8412,	8288,	9066,	8878,	8447,	8998,	15.11,	14.04,	14.87,	1.82,	13.45,	2.18,	2.24,	12.34,	12.15,	12.41,	14.71,	14.00,	14.62,	13.67,	1697,	1686
68,	8177,	7808,	8331,	8452,	8981,	8554,	8567,	8412,	8426,	8293,	9080,	8881,	8470,	9003,	15.11,	14.04,	14.87,	1.82,	13.45,	2.18,	2.24,	12.34,	12.15,	12.41,	14.71,	14.00,	14.62,	13.67,	1698,	1687
69,	8192,	7820,	8346,	8459,	8980,	8571,	8586,	8464,	8452,	8306,	9083,	8893,	8480,	9021,	15.11,	14.04,	14.87,	1.82,	13.45,	2.18,	2.24,	12.34,	12.15,	12.41,	14.71,	14.00,	14.62,	13.67,	1697,	1686
70,	8211,	7843,	8368,	8484,	8992,	8570,	8570,	8474,	8473,	8333,	9094,	8910,	8482,	9039,	15.11,	14.04,	14.87,	1.82,	13.45,	2.18,	2.24,	12.34,	12.15,	12.41,	14.71,	14.00,	14.62,	13.67,	1697,	1687
71,	8204,	7834,	8368,	8480,	9001,	8542,	8550,	8411,	8439,	8315,	9088,	8894,	8478,	9022,	15.11,	14.04,	14.87,	1.82,	13.45,	2.18,	2.24,	12.34,	12.15,	12.41,	14.71,	14.00,	14.62,	13.67,	1697,	1686
72,	8188,	7809,	8350,	8461,	8994,	8538,	8563,	8376,	8398,	8267,	9064,	8873,	8462,	8999,	15.11,	14.04,	14.87,	1.82,	13.45,	2.18,	2.24,	12.34,	12.15,	12.41,	14.71,	14.00,	14.62,	13.67,	1697,	1686
73,	8185,	7812,	8347,	8473,	8995,	8557,	8575,	8401,	8412,	8266,	9065,	8877,	8454,	8999,	15.11,	14.04,	14.87,	1.82,	13.45,	2.18,	2.24,	12.34,	12.15,	12.41,	14.71,	14.00,	14.62,	13.67,	1697,	1686
74,	8166,	7810,	8346,	8468,	8991,	8550,	8566,	8392,	8415,	8283,	9064,	8864,	8446,	8988,	15.11,	14.04,	14.87,	1.82,	13.45,	2.18,	2.24,	12.34,	12.15,	12.41,	14.71,	14.00,	14.62,	13.67,	1696,	1686
75,	8165,	7809,	8347,	8458,	8987,	8548,	8564,	8360,	8394,	8275,	9058,	8854,	8450,	8983,	15.11,	14.04,	14.87,	1.82,	13.45,	2.18,	2.24,	12.34,	12.15,	12.41,	14.71,	14.00,	14.62,	13.67,	1697,	1686
76,	8213,	7849,	8385,	8498,	9015,	8583,	8586,	8399,	8427,	8288,	9097,	8903,	8498,	9024,	15.11,	14.04,	14.87,	1.82,	13.45,	2.18,	2.24,	12.34,	12.15,	12.41,	14.71,	14.00,	14.62,	13.67,	1695,	1685
77,	8227,	7859,	8411,	8516,	9024,	8584,	8572,	8429,	8446,	8309,	9120,	8927,	8517,	9045,	15.11,	14.04,	14.87,	1.82,	13.45,	2.18,	2.24,	12.34,	12.15,	12.41,	14.71,	14.00,	14.62,	13.67,	1695,	1685
78,	8185,	7819,	8380,	8475,	8978,	8532,	8524,	8380,	8391,	8276,	9078,	8889,	8470,	9005,	15.11,	14.04,	14.87,	1.82,	13.45,	2.18,	2.24,	12.34,	12.15,	12.41,	14.71,	14.00,	14.62,	13.67,	1695,	1686
79,	8168,	7803,	8355,	8455,	8953,	8510,	8523,	8362,	8370,	8251,	9057,	8874,	8447,	8980,	15.11,	14.04,	14.87,	1.82,	13.45,	2.18,	2.24,	12.34,	12.15,	12.41,	14.71,	14.00,	14.62,	13.67,	1695,	1685
80,	8174,	7815,	8368,	8470,	8985,	8533,	8550,	8393,	8408,	8286,	9076,	8887,	8464,	8992,	15.11,	14.04,	14.87,	1.82,	13.45,	2.18,	2.24,	12.34,	12.15,	12.41,	14.71,	14.00,	14.62,	13.67,	1695,	1686
81,	8167,	7820,	8373,	8474,	9011,	8545,	8542,	8386,	8418,	8300,	9072,	8884,	8468,	8994,	15.11,	14.04,	14.87,	1.82,	13.45,	2.18,	2.24,	12.34,	12.15,	12.41,	14.71,	14.00,	14.62,	13.67,	1695,	1685
82,	8172,	7827,	8363,	8472,	9004,	8548,	8543,	8372,	8403,	8280,	9062,	8878,	8460,	8993,	15.11,	14.04,	14.87,	1.82,	13.45,	2.18,	2.24,	12.34,	12.15,	12.41,	14.71,	14.00,	14.62,	13.67,	1694,	1686
83,	8173,	7818,	8351,	8458,	8986,	8554,	8570,	8388,	8404,	8268,	9058,	8865,	8450,	8986,	15.11,	14.04,	14.87,	1.82,	13.45,	2.18,	2.24,	12.34,	12.15,	12.41,	14.71,	14.00,	14.62,	13.67,	1695,	1685
84,	8153,	7791,	8337,	8435,	8974,	8537,	8560,	8393,	8404,	8237,	9041,	8848,	8438,	8970,	15.11,	14.04,	14.87,	1.82,	13.45,	2.18,	2.24,	12.34,	12.15,	12.41,	14.71,	14.00,	14.62,	13.67,	1693,	1686
85,	8150,	7796,	8346,	8449,	8970,	8519,	8534,	8398,	8404,	8214,	9051,	8865,	8456,	8978,	15.11,	14.04,	14.87,	1.82,	13.45,	2.18,	2.24,	12.34,	12.15,	12.41,	14.71,	14.00,	14.62,	13.67,	1694,	1686
86,	8165,	7814,	8362,	8471,	8972,	8529,	8549,	8397,	8400,	8236,	9073,	8885,	8472,	8996,	15.11,	14.04,	14.87,	1.82,	13.45,	2.18,	2.24,	12.34,	12.15,	12.41,	14.71,	14.00,	14.62,	13.67,	1694,	1685
87,	8164,	7813,	8354,	8467,	8992,	8543,	8566,	8379,	8397,	8271,	9059,	8864,	8462,	8982,	15.11,	14.04,	14.87,	1.82,	13.45,	2.18,	2.24,	12.34,	12.15,	12.41,	14.71,	14.00,	14.62,	13.67,	1694,	1686
88,	8157,	7806,	8338,	8459,	9009,	8542,	8552,	8372,	8404,	8284,	9049,	8846,	8460,	8974,	15.11,	14.04,	14.87,	1.82,	13.45,	2.18,	2.24,	12.34,	12.15,	12.41,	14.71,	14.00,	14.62,	13.67,	1694,	1684
89,	8158,	7800,	8334,	8456,	8987,	8522,	8524,	8360,	8390,	8271,	9058,	8856,	8462,	8979,	15.11,	14.04,	14.87,	1.82,	13.45,	2.18,	2.24,	12.34,	12.15,	12.41,	14.71,	14.00,	14.62,	13.67,	1694,	1686
90,	8145,	7793,	8326,	8451,	8961,	8512,	8521,	8349,	8370,	8246,	9047,	8851,	8449,	8962,	15.11,	14.04,	14.87,	1.82,	13.45,	2.18,	2.24,	12.34,	12.15,	12.41,	14.71,	14.00,	14.62,	13.67,	1695,	1685
91,	8122,	7793,	8304,	8445,	8967,	8538,	8548,	8359,	8373,	8228,	9026,	8825,	8436,	8934,	15.11,	14.04,	14.87,	1.82,	13.45,	2.18,	2.24,	12.34,	12.15,	12.41,	14.71,	14.00,	14.62,	13.67,	1695,	1686
92,	8123,	7806,	8303,	8455,	8973,	8557,	8562,	8367,	8389,	8227,	9028,	8823,	8435,	8938,	15.11,	14.04,	14.87,	1.82,	13.45,	2.18,	2.24,	12.34,	12.15,	12.41,	14.71,	14.00,	14.62,	13.67,	1696,	1686
93,	8152,	7826,	8328,	8482,	8984,	8553,	8565,	8390,	8411,	8255,	9046,	8847,	8456,	8970,	15.11,	14.04,	14.87,	1.82,	13.45,	2.18,	2.24,	12.34,	12.15,	12.41,	14.71,	14.00,	14.62,	13.67,	1695,	1687
94,	8165,	7832,	8334,	8488,	9004,	8552,	8577,	8416,	8426,	8284,	9059,	8860,	8476,	8985,	15.11,	14.04,	14.87,	1.82,	13.45,	2.18,	2.24,	12.34,	12.15,	12.41,	14.71,	14.00,	14.62,	13.67,	1697,	1686
95,	8149,	7823,	8316,	8465,	9003,	8545,	8569,	8396,	8414,	8283,	9065,	8848,	8470,	8975,	15.11,	14.04,	14.87,	1.82,	13.45,	2.18,	2.24,	12.34,	12.15,	12.41,	14.71,	14.00,	14.62,	13.67,	1696,	1687
96,	8148,	7819,	8318,	8464,	8992,	8534,	8548,	8382,	8405,	8280,	9064,	8849,	8468,	8969,	15.11,	14.04,	14.87,	1.82,	13.45,	2.18,	2.24,	12.34,	12.15,	12.41,	14.71,	14.00,	14.62,	13.67,	1697,	1687
97,	8179,	7832,	8346,	8484,	8998,	8554,	8566,	8408,	8416,	8296,	9072,	8875,	8491,	8990,	15.11,	14.04,	14.87,	1.82,	13.45,	2.18,	2.24,	12.34,	12.15,	12.41,	14.71,	14.00,	14.62,	13.67,	1697,	1686
98,	8203,	7851,	8362,	8495,	9004,	8562,	8576,	8397,	8418,	8283,	9086,	8893,	8509,	9019,	15.11,	14.04,	14.87,	1.82,	13.45,	2.18,	2.24,	12.34,	12.15,	12.41,	14.71,	14.00,	14.62,	13.67,	1697,	1688
99,	8199,	7853,	8355,	8494,	9001,	8539,	8543,	8382,	8417,	8256,	9091,	8897,	8512,	9023,	15.11,	14.04,	14.87,	1.82,	13.45,	2.18,	2.24,	12.34,	12.15,	12.41,	14.71,	14.00,	14.62,	13.67,	1698,	1686
100,	8174,	7831,	8329,	8477,	8992,	8526,	8527,	8382,	8403,	8253,	9072,	8885,	8493,	8996,	15.11,	14.04,	14.87,	1.82,	13.45,	2.18,	2.24,	12.34,	12.15,	12.41,	14.71,	14.00,	14.62,	13.67,	1697,	1688
101,	8128,	7795,	8285,	8443,	8967,	8505,	8509,	8326,	8343,	8222,	9018,	8836,	8436,	8945,	15.11,	14.04,	14.87,	1.82,	13.45,	2.18,	2.24,	12.34,	12.15,	12.41,	14.71,	14.00,	14.62,	13.67,	1697,	1688
102,	8076,	7751,	8230,	8394,	8933,	8466,	8458,	8262,	8278,	8148,	8945,	8768,	8367,	8887,	15.11,	14.04,	14.87,	1.82,	13.45,	2.18,	2.24,	12.34,	12.15,	12.41,	14.71,	14.00,	14.62,	13.67,	1697,	1688
103,	8046,	7709,	8187,	8343,	8908,	8453,	8440,	8263,	8268,	8122,	8897,	8732,	8330,	8849,	15.11,	14.04,	14.87,	1.82,	13.45,	2.18,	2.24,	12.34,	12.15,	12.41,	14.71,	14.00,	14.62,	13.67,	1698,	1688
104,	8060,	7719,	8201,	8350,	8917,	8484,	8492,	8305,	8312,	8161,	8922,	8750,	8354,	8869,	15.11,	14.04,	14.87,	1.82,	13.45,	2.18,	2.24,	12.34,	12.15,	12.41,	14.71,	14.00,	14.62,	13.67,	1696,	1687
105,	8115,	7774,	8264,	8418,	8962,	8540,	8560,	8360,	8379,	8199,	9001,	8806,	8433,	8936,	15.11,	14.04,	14.87,	1.82,	13.45,	2.18,	2.24,	12.34,	12.15,	12.41,	14.71,	14.00,	14.62,	13.67,	1697,	1686
106,	8161,	7814,	8309,	8460,	8993,	8576,	8590,	8402,	8425,	8241,	9059,	8862,	8497,	8990,	15.11,	14.04,	14.87,	1.82,	13.45,	2.18,	2.24,	12.34,	12.15,	12.41,	14.71,	14.00,	14.62,	13.67,	1696,	1686
107,	8156,	7814,	8300,	8452,	8983,	8556,	8564,	8388,	8419,	8289,	9060,	8873,	8493,	8987,	15.11,	14.04,	14.87,	1.82,	13.45,	2.18,	2.24,	12.34,	12.15,	12.41,	14.71,	14.00,	14.62,	13.67,	1697,	1686
108,	8128,	7788,	8267,	8434,	8953,	8516,	8517,	8342,	8382,	8269,	9034,	8838,	8460,	8948,	15.11,	14.04,	14.87,	1.82,	13.45,	2.18,	2.24,	12.34,	12.15,	12.41,	14.71,	14.00,	14.62,	13.67,	1697,	1685
109,	8130,	7785,	8258,	8433,	8952,	8524,	8520,	8345,	8374,	8221,	9023,	8821,	8458,	8945,	15.11,	14.04,	14.87,	1.82,	13.45,	2.18,	2.24,	12.34,	12.15,	12.41,	14.71,	14.00,	14.62,	13.67,	1696,	1687
110,	8156,	7814,	8284,	8455,	8991,	8545,	8539,	8379,	8393,	8237,	9036,	8855,	8486,	8983,	15.11,	14.04,	14.87,	1.82,	13.45,	2.18,	2.24,	12.34,	12.15,	12.41,	14.71,	14.00,	14.62,	13.67,	1698,	1685
111,	8176,	7831,	8305,	8479,	9008,	8525,	8516,	8364,	8393,	8265,	9057,	8888,	8505,	9003,	15.11,	14.04,	14.87,	1.82,	13.45,	2.18,	2.24,	12.34,	12.15,	12.41,	14.71,	14.00,	14.62,	13.67,	1696,	1687
112,	8189,	7833,	8311,	8485,	8988,	8516,	8513,	8341,	8387,	8241,	9066,	8896,	8508,	9006,	15.11,	14.04,	14.87,	1.82,	13.45,	2.18,	2.24,	12.34,	12.15,	12.41,	14.71,	14.00,	14.62,	13.67,	1698,	1687
113,	8200,	7841,	8321,	8491,	8999,	8548,	8565,	8383,	8401,	8242,	9063,	8904,	8509,	9017,	15.11,	14.04,	14.87,	1.82,	13.45,	2.18,	2.24,	12.34,	12.15,	12.41,	14.71,	14.00,	14.62,	13.67,	1697,	1687
114,	8199,	7845,	8321,	8493,	9014,	8556,	8579,	8410,	8416,	8286,	9051,	8906,	8511,	9023,	15.11,	14.04,	14.87,	1.82,	13.45,	2.18,	2.24,	12.34,	12.15,	12.41,	14.71,	14.00,	14.62,	13.67,	1697,	1687
115,	8180,	7831,	8301,	8474,	8990,	8534,	8548,	8374,	8404,	8286,	9036,	8877,	8500,	9003,	15.11,	14.04,	14.87,	1.82,	13.45,	2.18,	2.24,	12.34,	12.15,	12.41,	14.71,	14.00,	14.62,	13.67,	1696,	1687
116,	8162,	7813,	8285,	8454,	8971,	8527,	8537,	8367,	8386,	8254,	9029,	8852,	8485,	8978,	15.11,	14.04,	14.87,	1.82,	13.45,	2.18,	2.24,	12.34,	12.15,	12.41,	14.71,	14.00,	14.62,	13.67,	1697,	1688
117,	8146,	7794,	8271,	8449,	8960,	8515,	8517,	8379,	8382,	8236,	9032,	8846,	8482,	8964,	15.11,	14.04,	14.87,	1.82,	13.45,	2.18,	2.24,	12.34,	12.15,	12.41,	14.71,	14.00,	14.62,	13.67,	1696,	1687
118,	8135,	7784,	8263,	8445,	8932,	8484,	8478,	8346,	8376,	8222,	9025,	8843,	8478,	8960,	15.11,	14.04,	14.87,	1.82,	13.45,	2.18,	2.24,	12.34,	12.15,	12.41,	14.71,	14.00,	14.62,	13.67,	1697,	1689
119,	8142,	7793,	8280,	8452,	8937,	8486,	8481,	8341,	8373,	8211,	9024,	8856,	8472,	8964,	15.11,	14.04,	14.87,	1.82,	13.45,	2.18,	2.24,	12.34,	12.15,	12.41,	14.71,	14.00,	14.62,	13.67,	1697,	1689
120,	8158,	7807,	8308,	8476,	8978,	8521,	8527,	8392,	8394,	8232,	9057,	8883,	8485,	8972,	15.11,	14.04,	14.87,	1.82,	13.45,	2.18,	2.24,	12.34,	12.15,	12.41,	14.71,	14.00,	14.62,	13.67,	1696,	1690
121,	8176,	7825,	8341,	8512,	8996,	8553,	8572,	8414,	8414,	8260,	9109,	8921,	8515,	8991,	15.11,	14.04,	14.87,	1.82,	13.45,	2.18,	2.24,	12.34,	12.15,	12.41,	14.71,	14.00,	14.62,	13.67,	1697,	1686
122,	8203,	7851,	8387,	8548,	8992,	8559,	8585,	8395,	8408,	8239,	9148,	8971,	8537,	9020,	15.11,	14.04,	14.87,	1.82,	13.45,	2.18,	2.24,	12.34,	12.15,	12.41,	14.71,	14.00,	14.62,	13.67,	1696,	1687
123,	8237,	7879,	8438,	8570,	9003,	8555,	8573,	8396,	8398,	8220,	9178,	9019,	8554,	9050,	15.11,	14.04,	14.87,	1.82,	13.45,	2.18,	2.24,	12.34,	12.15,	12.41,	14.71,	14.00,	14.62,	13.67,	1697,	1685
124,	8256,	7895,	8475,	8590,	9010,	8571,	8576,	8415,	8399,	8249,	9208,	9051,	8569,	9068,	15.11,	14.04,	14.87,	1.82,	13.45,	2.18,	2.24,	12.34,	12.15,	12.41,	14.71,	14.00,	14.62,	13.67,	1697,	1684
125,	8251,	7892,	8478,	8599,	8987,	8556,	8565,	8395,	8381,	8247,	9215,	9051,	8558,	9058,	15.11,	14.04,	14.87,	1.82,	13.45,	2.18,	2.24,	12.34,	12.15,	12.41,	14.71,	14.00,	14.62,	13.67,	1698,	1685
126,	8229,	7869,	8454,	8578,	8967,	8498,	8510,	8355,	8346,	8188,	9202,	9035,	8539,	9037,	15.11,	14.04,	14.87,	1.82,	13.45,	2.18,	2.24,	12.34,	12.15,	12.41,	14.71,	14.00,	14.62,	13.67,	1698,	1685
127,	8214,	7849,	8439,	8557,	8969,	8484,	8500,	8359,	8345,	8187,	9204,	9032,	8550,	9032,	15.11,	14.04,	14.87,	1.82,	13.45,	2.18,	2.24,	12.34,	12.15,	12.41,	14.71,	14.00,	14.62,	13.67,	1699,	1685
0,	8223,	7862,	8418,	8562,	8973,	8547,	8552,	8369,	8352,	8210,	9196,	9020,	8554,	9032,	15.11,	14.04,	14.87,	1.82,	13.45,	2.18,	2.24,	12.34,	12.15,	12.41,	14.71,	14.00,	14.62,	13.67,	1698,	1687
1,	8206,	7850,	8390,	8549,	8993,	8540,	8544,	8359,	8328,	8179,	9170,	8981,	8537,	9015,	15.11,	14.04,	14.87,	1.82,	13.45,	2.18,	2.24,	12.34,	12.15,	12.41,	14.71,	14.00,	14.62,	13.67,	1699,	1686
2,	8212,	7853,	8387,	8540,	8990,	8548,	8568,	8396,	8351,	8217,	9162,	8974,	8544,	9020,	15.11,	14.04,	14.87,	1.82,	13.45,	2.18,	2.24,	12.34,	12.15,	12.41,	14.71,	14.00,	14.62,	13.67,	1699,	1687
3,	8220,	7859,	8380,	8526,	8972,	8553,	8586,	8417,	8379,	8245,	9160,	8975,	8550,	9028,	15.11,	14.04,	14.87,	1.82,	13.45,	2.18,	2.24,	12.34,	12.15,	12.41,	14.71,	14.00,	14.62,	13.67,	1698,	1687
4,	8196,	7841,	8347,	8510,	8984,	8550,	8594,	8419,	8374,	8211,	9138,	8948,	8541,	9008,	15.11,	14.04,	14.87,	1.82,	13.45,	2.18,	2.24,	12.34,	12.15,	12.41,	14.71,	14.00,	14.62,	13.67,	1699,	1687
5,	8183,	7840,	8332,	8512,	9002,	8553,	8604,	8447,	8389,	8210,	9121,	8916,	8540,	8999,	15.11,	14.04,	14.87,	1.82,	13.45,	2.18,	2.24,	12.34,	12.15,	12.41,	14.71,	14.00,	14.62,	13.67,	1699,	1686
6,	8193,	7855,	8332,	8515,	9010,	8563,	8586,	8461,	8416,	8261,	9125,	8911,	8546,	9015,	15.11,	14.04,	14.87,	1.82,	13.45,	2.18,	2.24,	12.34,	12.15,	12.41,	14.71,	14.00,	14.62,	13.67,	1700,	1685
7,	8182,	7846,	8310,	8497,	9004,	8572,	8566,	8439,	8414,	8267,	9111,	8911,	8547,	9014,	15.11,	14.04,	14.87,	1.82,	13.45,	2.18,	2.24,	12.34,	12.15,	12.41,	14.71,	14.00,	14.62,	13.67,	1699,	1684
8,	8171,	7830,	8291,	8474,	8976,	8563,	8574,	8425,	8397,	8244,	9090,	8894,	8543,	9000,	15.11,	14.04,	14.87,	1.82,	13.45,	2.18,	2.24,	12.34,	12.15,	12.41,	14.71,	14.00,	14.62,	13.67,	1700,	1684
9,	8182,	7829,	8296,	8470,	8963,	8537,	8572,	8420,	8393,	8253,	9094,	8883,	8534,	9003,	15.11,	14.04,	14.87,	1.82,	13.45,	2.18,	2.24,	12.34,	12.15,	12.41,	14.71,	14.00,	14.62,	13.67,	1699,	1683
10,	8182,	7825,	8291,	8468,	8980,	8515,	8545,	8406,	8392,	8244,	9083,	8880,	8526,	9005,	15.11,	14.04,	14.87,	1.82,	13.45,	2.18,	2.24,	12.34,	12.15,	12.41,	14.71,	14.00,	14.62,	13.67,	1699,	1685
11,	8175,	7823,	8281,	8463,	8987,	8530,	8551,	8416,	8393,	8209,	9057,	8876,	8528,	8994,	15.11,	14.04,	14.87,	1.82,	13.45,	2.18,	2.24,	12.34,	12.15,	12.41,	14.71,	14.00,	14.62,	13.67,	1700,	1684
12,	8192,	7844,	8294,	8477,	9001,	8575,	8602,	8457,	8414,	8249,	9071,	8880,	8543,	9003,	15.11,	14.04,	14.87,	1.82,	13.45,	2.18,	2.24,	12.34,	12.15,	12.41,	14.71,	14.00,	14.62,	13.67,	1698,	1686
13,	8196,	7849,	8291,	8489,	9014,	8575,	8604,	8470,	8432,	8306,	9082,	8877,	8545,	9006,	15.11,	14.04,	14.87,	1.82,	13.45,	2.18,	2.24,	12.34,	12.15,	12.41,	14.71,	14.00,	14.62,	13.67,	1700,	1687
14,	8164,	7819,	8262,	8465,	8976,	8525,	8550,	8438,	8413,	8274,	9057,	8852,	8521,	8979,	15.11,	14.04,	14.87,	1.82,	13.45,	2.18,	2.24,	12.34,	12.15,	12.41,	14.71,	14.00,	14.62,	13.67,	1699,	1686
15,	8153,	7804,	8249,	8442,	8957,	8533,	8555,	8411,	8374,	8227,	9047,	8841,	8509,	8971,	15.11,	14.04,	14.87,	1.82,	13.45,	2.18,	2.24,	12.34,	12.15,	12.41,	14.71,	14.00,	14.62,	13.67,	1700,	1686
16,	8183,	7825,	8262,	8457,	8994,	8582,	8601,	8415,	8373,	8249,	9059,	8852,	8527,	8995,	15.11,	14.04,	14.87,	1.82,	13.45,	2.18,	2.24,	12.34,	12.15,	12.41,	14.71,	14.00,	14.62,	13.67,	1700,	1685
17,	8196,	7831,	8265,	8462,	8993,	8554,	8567,	8423,	8393,	8265,	9061,	8852,	8539,	9003,	15.11,	14.04,	14.87,	1.82,	13.45,	2.18,	2.24,	12.34,	12.15,	12.41,	14.71,	14.00,	14.62,	13.67,	1700,	1686
18,	8173,	7808,	8249,	8439,	8966,	8512,	8514,	8419,	8394,	8238,	9056,	8845,	8531,	8991,	15.11,	14.04,	14.87,	1.82,	13.45,	2.18,	2.24,	12.34,	12.15,	12.41,	14.71,	14.00,	14.62,	13.67,	1699,	1686
19,	8166,	7811,	8249,	8438,	8992,	8558,	8559,	8426,	8410,	8262,	9070,	8853,	8540,	9004,	15.11,	14.04,	14.87,	1.82,	13.45,	2.18,	2.24,	12.34,	12.15,	12.41,	14.71,	14.00,	14.62,	13.67,	1699,	1687
20,	8171,	7815,	8250,	8448,	9010,	8584,	8583,	8447,	8438,	8308,	9070,	8862,	8549,	9009,	15.11,	14.04,	14.87,	1.82,	13.45,	2.18,	2.24,	12.34,	12.15,	12.41,	14.71,	14.00,	14.62,	13.67,	1699,	1686
21,	8154,	7790,	8227,	8426,	8958,	8523,	8519,	8461,	8432,	8284,	9041,	8846,	8522,	8980,	15.11,	14.04,	14.87,	1.82,	13.45,	2.18,	2.24,	12.34,	12.15,	12.41,	14.71,	14.00,	14.62,	13.67,	1699,	1687
22,	8138,	7779,	8205,	8404,	8923,	8485,	8500,	8456,	8407,	8251,	9026,	8822,	8501,	8966,	15.11,	14.04,	14.87,	1.82,	13.45,	2.18,	2.24,	12.34,	12.15,	12.41,	14.71,	14.00,	14.62,	13.67,	1699,	1686
23,	8126,	7771,	8193,	8398,	8935,	8509,	8541,	8440,	8405,	8253,	9021,	8818,	8500,	8961,	15.11,	14.04,	14.87,	1.82,	13.45,	2.18,	2.24,	12.34,	12.15,	12.41,	14.71,	14.00,	14.62,	13.67,	1698,	1687
24,	8104,	7749,	8179,	8395,	8947,	8535,	8555,	8436,	8408,	8226,	9007,	8816,	8494,	8942,	15.11,	14.04,	14.87,	1.82,	13.45,	2.18,	2.24,	12.34,	12.15,	12.41,	14.71,	14.00,	14.62,	13.67,	1699,	1686
25,	8101,	7752,	8184,	8399,	8952,	8535,	8545,	8448,	8408,	8210,	9014,	8807,	8491,	8937,	15.11,	14.04,	14.87,	1.82,	13.45,	2.18,	2.24,	12.34,	12.15,	12.41,	14.71,	14.00,	14.62,	13.67,	1697,	1686
26,	8138,	7782,	8209,	8411,	8965,	8539,	8550,	8452,	8423,	8264,	9043,	8826,	8513,	8972,	15.11,	14.04,	14.87,	1.82,	13.45,	2.18,	2.24,	12.34,	12.15,	12.41,	14.71,	14.00,	14.62,	13.67,	1698,	1688
27,	8170,	7803,	8229,	8428,	8984,	8567,	8576,	8458,	8439,	8306,	9062,	8861,	8539,	9005,	15.11,	14.04,	14.87,	1.82,	13.45,	2.18,	2.24,	12.34,	12.15,	12.41,	14.71,	14.00,	14.62,	13.67,	1698,	1687
28,	8171,	7802,	8238,	8436,	8976,	8576,	8586,	8470,	8439,	8295,	9068,	8865,	8545,	9010,	15.11,	14.04,	14.87,	1.82,	13.45,	2.18,	2.24,	12.34,	12.15,	12.41,	14.71,	14.00,	14.62,	13.67,	1697,	1688
