=====================
  Detection Session  
=====================
Name:		Mohamed Nour El-Din
Source:		Session_2014_05_03_82409/[T][2014-05-03 23-07-53] Mohamed Nour El-Din.csv
Date:		2014-05-03 23:20:06
Trials:		10
PreTime:	3
RecTime:	4
PostTime:	4
Classifier:	LEASTSQUARES
AvgDetectTime:	0.148378562927
Triggers:	3536, 5060, 6582, 8105, 9627, 11150, 12673, 14195, 15718, 17240
Directions:	2, 2, 2, 2, 2, 2, 1, 2, 2, 1
ClassesTypes:	1, 2, 1, 2, 2, 2, 1, 1, 2, 1
ClassesNames:	RIGHT, LEFT

RawData:
Count,	F3,	FC5,	AF3,	F7,	T7,	P7,	O1,	O2,	P8,	T8,	F8,	AF4,	FC6,	F4,	Q_F3,	Q_FC5,	Q_AF3,	Q_F7,	Q_T7,	Q_P7,	Q_O1,	Q_O2,	Q_P8,	Q_T8,	Q_F8,	Q_AF4,	Q_FC6,	Q_F4,	GyroX,	GyroY
57,	8377,	7840,	8870,	8314,	7530,	8303,	7843,	8588,	8183,	8248,	8234,	8407,	8271,	8078,	0.00,	0.00,	0.00,	0.00,	0.00,	0.00,	0.00,	0.00,	0.00,	0.00,	0.00,	0.00,	0.00,	0.00,	1643,	1659
58,	8363,	7837,	8857,	8309,	7491,	8313,	7839,	8580,	8184,	8249,	8232,	8389,	8258,	8075,	0.00,	0.00,	0.00,	0.00,	0.00,	0.00,	0.00,	0.00,	0.00,	0.00,	0.00,	0.00,	0.00,	0.00,	1643,	1660
59,	8379,	7841,	8875,	8310,	7526,	8324,	7849,	8606,	8200,	8270,	8242,	8404,	8279,	8090,	12.10,	11.50,	14.16,	0.84,	9.01,	1.14,	1.91,	10.50,	5.26,	10.65,	14.65,	11.70,	13.47,	0.00,	1644,	1659
60,	8411,	7854,	8881,	8309,	7521,	8319,	7867,	8623,	8205,	8272,	8237,	8418,	8285,	8102,	12.10,	11.50,	14.16,	0.84,	9.01,	1.14,	1.91,	10.50,	5.26,	10.65,	14.65,	11.70,	13.47,	0.00,	1642,	1659
61,	8379,	7850,	8871,	8320,	7491,	8320,	7871,	8600,	8217,	8261,	8240,	8407,	8290,	8107,	12.10,	11.50,	14.16,	0.84,	9.01,	1.14,	1.91,	10.50,	5.26,	10.65,	14.65,	11.70,	13.47,	0.00,	1643,	1660
62,	8399,	7848,	8892,	8326,	7547,	8333,	7879,	8617,	8232,	8289,	8273,	8430,	8318,	8130,	12.10,	11.50,	14.16,	0.84,	9.01,	1.14,	1.91,	10.50,	5.26,	10.65,	14.65,	11.70,	13.47,	0.00,	1641,	1662
63,	8418,	7856,	8909,	8325,	7524,	8335,	7889,	8636,	8242,	8318,	8288,	8427,	8322,	8140,	12.10,	11.50,	14.16,	0.84,	9.01,	1.14,	1.91,	10.50,	5.26,	10.65,	14.65,	11.70,	13.47,	0.00,	1642,	1662
64,	8413,	7880,	8911,	8341,	7534,	8344,	7905,	8626,	8254,	8309,	8279,	8414,	8310,	8135,	12.10,	11.50,	14.16,	0.84,	9.01,	1.14,	1.91,	10.50,	5.26,	10.65,	14.65,	11.70,	13.47,	0.00,	1640,	1663
65,	8445,	7902,	8924,	8360,	7558,	8365,	7928,	8639,	8262,	8307,	8287,	8434,	8336,	8157,	12.10,	11.50,	14.16,	0.84,	9.01,	1.14,	1.91,	10.50,	5.26,	10.65,	14.65,	11.70,	13.47,	0.00,	1640,	1664
66,	8431,	7889,	8923,	8358,	7533,	8357,	7920,	8655,	8266,	8338,	8297,	8427,	8356,	8169,	12.10,	11.50,	14.16,	0.84,	9.01,	1.14,	1.91,	10.50,	5.26,	10.65,	14.65,	11.70,	13.47,	0.00,	1640,	1664
67,	8442,	7888,	8930,	8361,	7559,	8342,	7893,	8644,	8266,	8349,	8285,	8423,	8327,	8154,	12.10,	11.50,	14.16,	0.84,	9.01,	1.14,	1.91,	10.50,	5.26,	10.65,	14.65,	11.70,	13.47,	14.55,	1639,	1664
68,	8471,	7903,	8947,	8378,	7523,	8367,	7920,	8635,	8273,	8334,	8289,	8434,	8322,	8154,	12.10,	11.50,	14.16,	0.84,	9.01,	1.14,	1.91,	10.50,	5.26,	10.65,	14.65,	11.70,	13.47,	14.55,	1638,	1665
69,	8455,	7897,	8948,	8380,	7533,	8386,	7961,	8656,	8277,	8335,	8313,	8433,	8357,	8173,	12.10,	11.50,	14.16,	0.84,	9.01,	1.14,	1.91,	10.50,	5.26,	10.65,	14.65,	11.70,	13.47,	14.55,	1639,	1664
70,	8462,	7887,	8945,	8363,	7577,	8373,	7933,	8665,	8270,	8335,	8309,	8427,	8359,	8170,	12.10,	11.50,	14.16,	0.84,	9.01,	1.14,	1.91,	10.50,	5.26,	10.65,	14.65,	11.70,	13.47,	14.55,	1637,	1665
71,	8451,	7870,	8945,	8362,	7535,	8368,	7905,	8641,	8279,	8329,	8300,	8419,	8348,	8165,	12.10,	11.50,	14.16,	0.84,	9.01,	1.14,	1.91,	10.50,	5.26,	10.65,	14.65,	11.70,	13.47,	14.55,	1639,	1667
72,	8470,	7861,	8969,	8379,	7562,	8379,	7951,	8667,	8294,	8347,	8318,	8446,	8373,	8192,	12.10,	11.50,	14.16,	0.84,	9.01,	1.14,	1.91,	10.50,	5.26,	10.65,	14.65,	11.70,	13.47,	14.55,	1637,	1665
73,	8493,	7861,	8984,	8375,	7560,	8379,	7963,	8698,	8292,	8370,	8327,	8455,	8387,	8204,	12.10,	11.50,	14.16,	0.84,	9.01,	1.14,	1.91,	10.50,	5.26,	10.65,	14.65,	11.70,	13.47,	14.55,	1636,	1667
74,	8448,	7858,	8956,	8348,	7550,	8371,	7921,	8650,	8269,	8353,	8304,	8417,	8361,	8172,	12.10,	11.50,	14.16,	0.84,	9.01,	1.14,	1.91,	10.50,	5.26,	10.65,	14.65,	11.70,	13.47,	14.55,	1636,	1666
75,	8446,	7875,	8926,	8339,	7577,	8368,	7922,	8613,	8256,	8318,	8275,	8397,	8337,	8143,	12.10,	11.50,	14.16,	0.84,	9.01,	1.14,	1.91,	10.50,	5.26,	10.65,	14.65,	11.70,	13.47,	14.55,	1634,	1667
76,	8457,	7903,	8930,	8363,	7544,	8375,	7949,	8631,	8268,	8315,	8274,	8389,	8339,	8146,	12.10,	11.50,	14.16,	0.84,	9.01,	1.14,	1.91,	10.50,	5.26,	10.65,	14.65,	11.70,	13.47,	14.55,	1635,	1666
77,	8474,	7935,	8964,	8382,	7588,	8385,	7962,	8654,	8276,	8336,	8287,	8402,	8351,	8164,	12.10,	11.50,	14.16,	0.84,	9.01,	1.14,	1.91,	10.50,	5.26,	10.65,	14.68,	11.70,	13.47,	14.55,	1635,	1665
78,	8483,	7950,	8967,	8360,	7592,	8383,	7955,	8642,	8269,	8335,	8284,	8409,	8349,	8167,	12.10,	11.50,	14.16,	0.84,	9.01,	1.14,	1.91,	10.50,	5.26,	10.65,	14.68,	11.70,	13.47,	14.55,	1636,	1664
79,	8439,	7931,	8931,	8331,	7545,	8372,	7930,	8627,	8274,	8315,	8282,	8386,	8342,	8161,	12.10,	11.50,	14.16,	0.84,	9.01,	1.14,	1.91,	10.50,	5.26,	10.65,	14.68,	11.70,	13.47,	14.55,	1635,	1665
80,	8447,	7920,	8919,	8322,	7582,	8354,	7913,	8627,	8270,	8310,	8278,	8378,	8329,	8154,	12.10,	11.50,	14.16,	0.84,	9.01,	1.14,	1.91,	10.50,	5.26,	10.65,	14.68,	11.70,	13.47,	14.55,	1637,	1665
81,	8442,	7918,	8908,	8293,	7568,	8327,	7895,	8590,	8236,	8289,	8249,	8360,	8307,	8131,	12.10,	11.50,	14.16,	0.84,	9.01,	1.14,	1.91,	10.50,	5.26,	10.65,	14.68,	11.70,	13.47,	14.56,	1637,	1664
82,	8430,	7942,	8906,	8282,	7573,	8324,	7895,	8583,	8226,	8277,	8250,	8363,	8311,	8131,	12.10,	11.50,	14.16,	0.84,	9.01,	1.14,	1.91,	10.50,	5.26,	10.65,	14.68,	11.70,	13.47,	14.56,	1638,	1664
83,	8479,	7985,	8942,	8317,	7574,	8356,	7930,	8644,	8269,	8327,	8303,	8405,	8351,	8175,	12.10,	11.50,	14.16,	0.84,	9.01,	1.14,	1.91,	10.50,	5.26,	10.65,	14.68,	11.70,	13.47,	14.56,	1638,	1662
84,	8482,	7994,	8967,	8333,	7554,	8378,	7953,	8679,	8295,	8374,	8341,	8429,	8390,	8215,	12.10,	11.50,	14.16,	0.84,	9.01,	1.14,	1.91,	10.50,	5.26,	10.65,	14.68,	11.70,	13.47,	14.56,	1638,	1662
85,	8484,	7991,	8958,	8317,	7605,	8375,	7944,	8669,	8275,	8367,	8333,	8437,	8396,	8212,	12.10,	11.50,	14.16,	0.84,	9.01,	1.14,	1.91,	10.50,	5.26,	10.65,	14.68,	11.70,	13.47,	14.52,	1639,	1660
86,	8479,	7975,	8937,	8307,	7577,	8371,	7933,	8638,	8257,	8346,	8306,	8421,	8359,	8184,	12.10,	11.50,	14.16,	0.84,	9.01,	1.14,	1.91,	10.50,	5.26,	10.65,	14.65,	11.70,	13.47,	14.52,	1638,	1660
87,	8464,	7968,	8943,	8319,	7575,	8375,	7961,	8633,	8267,	8345,	8294,	8425,	8341,	8180,	12.10,	11.50,	14.16,	0.84,	9.01,	1.14,	1.91,	10.50,	5.26,	10.65,	14.65,	11.69,	13.47,	14.52,	1639,	1659
88,	8503,	7992,	8968,	8336,	7623,	8379,	7983,	8651,	8278,	8343,	8309,	8451,	8369,	8200,	12.10,	11.50,	14.16,	0.84,	9.01,	1.14,	1.91,	10.50,	5.26,	10.65,	14.65,	11.69,	13.50,	14.52,	1638,	1659
89,	8487,	7972,	8964,	8327,	7593,	8374,	7952,	8616,	8274,	8330,	8315,	8443,	8370,	8201,	12.10,	11.50,	14.16,	0.84,	9.01,	1.14,	1.91,	10.50,	5.26,	10.65,	14.65,	11.69,	13.50,	14.52,	1640,	1660
90,	8456,	7933,	8951,	8307,	7590,	8362,	7930,	8572,	8262,	8313,	8288,	8437,	8339,	8182,	12.10,	11.50,	14.16,	0.84,	9.01,	1.14,	1.91,	10.50,	5.26,	10.65,	14.67,	11.69,	13.50,	14.52,	1639,	1661
91,	8441,	7923,	8950,	8298,	7555,	8352,	7930,	8563,	8260,	8301,	8278,	8436,	8341,	8173,	12.10,	11.50,	14.16,	0.84,	9.01,	1.14,	1.91,	10.50,	5.26,	10.65,	14.67,	11.70,	13.50,	14.52,	1641,	1661
92,	8418,	7908,	8953,	8297,	7566,	8346,	7918,	8559,	8248,	8300,	8286,	8432,	8348,	8170,	12.10,	11.50,	14.16,	0.84,	9.01,	1.14,	1.91,	10.50,	5.26,	10.65,	14.67,	11.70,	13.48,	14.52,	1640,	1661
93,	8430,	7886,	8943,	8288,	7572,	8333,	7908,	8542,	8215,	8284,	8266,	8425,	8316,	8158,	12.10,	11.50,	14.16,	0.84,	9.01,	1.14,	1.91,	10.50,	5.26,	10.65,	14.67,	11.70,	13.48,	14.52,	1642,	1662
94,	8389,	7851,	8921,	8271,	7491,	8322,	7917,	8527,	8212,	8268,	8253,	8396,	8306,	8151,	12.10,	11.50,	14.16,	0.84,	9.01,	1.14,	1.91,	10.50,	5.26,	10.65,	14.65,	11.70,	13.48,	14.52,	1642,	1660
95,	8374,	7832,	8918,	8258,	7566,	8327,	7921,	8549,	8226,	8275,	8258,	8406,	8317,	8150,	12.10,	11.50,	14.16,	0.84,	9.01,	1.14,	1.91,	10.50,	5.26,	10.65,	14.65,	11.69,	13.48,	14.52,	1641,	1661
96,	8413,	7840,	8916,	8254,	7597,	8336,	7919,	8571,	8233,	8291,	8253,	8424,	8315,	8147,	12.10,	11.50,	14.16,	0.84,	9.01,	1.14,	1.91,	10.50,	5.26,	10.65,	14.65,	11.69,	13.50,	14.52,	1642,	1660
97,	8394,	7826,	8917,	8259,	7548,	8347,	7928,	8567,	8250,	8302,	8258,	8421,	8319,	8149,	12.10,	11.50,	14.16,	0.84,	9.01,	1.14,	1.91,	10.50,	5.26,	10.65,	14.65,	11.69,	13.50,	14.52,	1641,	1661
98,	8415,	7803,	8945,	8263,	7606,	8347,	7927,	8564,	8246,	8293,	8259,	8443,	8322,	8154,	12.10,	11.50,	14.16,	0.84,	9.01,	1.14,	1.91,	10.50,	5.26,	10.65,	14.68,	11.69,	13.50,	14.52,	1642,	1661
99,	8421,	7803,	8943,	8274,	7591,	8334,	7913,	8570,	8235,	8282,	8254,	8443,	8324,	8157,	12.10,	11.50,	14.16,	0.84,	9.01,	1.14,	1.91,	10.50,	5.26,	10.65,	14.68,	11.69,	13.50,	14.52,	1641,	1660
100,	8385,	7815,	8920,	8286,	7592,	8325,	7906,	8580,	8241,	8290,	8256,	8434,	8322,	8156,	12.10,	11.50,	14.16,	0.84,	9.01,	1.14,	1.91,	10.50,	5.26,	10.65,	14.68,	11.69,	13.48,	14.52,	1642,	1658
101,	8412,	7800,	8928,	8271,	7613,	8327,	7913,	8565,	8230,	8292,	8252,	8450,	8310,	8151,	12.10,	11.50,	14.16,	0.84,	9.01,	1.14,	1.91,	10.50,	5.26,	10.65,	14.68,	11.69,	13.48,	14.53,	1642,	1657
102,	8424,	7777,	8947,	8266,	7582,	8338,	7925,	8540,	8224,	8278,	8260,	8460,	8318,	8162,	12.10,	11.50,	14.16,	0.84,	9.01,	1.14,	1.91,	10.50,	5.26,	10.65,	14.65,	11.69,	13.48,	14.53,	1642,	1658
103,	8452,	7809,	8973,	8304,	7638,	8345,	7930,	8570,	8239,	8288,	8285,	8489,	8346,	8184,	12.10,	11.50,	14.16,	0.84,	9.01,	1.14,	1.91,	10.50,	5.26,	10.65,	14.65,	11.70,	13.48,	14.53,	1642,	1660
104,	8476,	7827,	8979,	8316,	7627,	8333,	7905,	8574,	8228,	8298,	8276,	8493,	8344,	8176,	12.10,	11.50,	14.16,	0.84,	9.01,	1.14,	1.91,	10.50,	5.26,	10.65,	14.65,	11.70,	13.47,	14.53,	1643,	1662
105,	8449,	7800,	8959,	8287,	7593,	8316,	7880,	8528,	8202,	8272,	8239,	8468,	8314,	8148,	12.10,	11.50,	14.16,	0.84,	9.01,	1.14,	1.91,	10.50,	5.26,	10.65,	14.65,	11.70,	13.47,	14.52,	1643,	1663
106,	8490,	7838,	8982,	8296,	7637,	8330,	7916,	8563,	8225,	8288,	8252,	8493,	8324,	8174,	12.10,	11.50,	14.16,	0.84,	9.01,	1.14,	1.91,	10.50,	5.26,	10.65,	14.64,	11.70,	13.47,	14.52,	1643,	1664
107,	8516,	7904,	9019,	8332,	7625,	8356,	7973,	8606,	8255,	8332,	8292,	8512,	8349,	8207,	12.10,	11.50,	14.16,	0.84,	9.01,	1.14,	1.91,	10.50,	5.26,	10.65,	14.64,	11.69,	13.47,	14.52,	1644,	1662
108,	8510,	7916,	9009,	8326,	7635,	8356,	7975,	8580,	8236,	8320,	8287,	8507,	8338,	8190,	12.10,	11.50,	14.16,	0.84,	9.01,	1.14,	1.91,	10.50,	5.26,	10.65,	14.64,	11.69,	13.50,	14.52,	1642,	1663
109,	8518,	7908,	8980,	8301,	7602,	8346,	7921,	8577,	8229,	8300,	8277,	8501,	8345,	8180,	12.10,	11.50,	14.16,	0.84,	9.01,	1.14,	1.91,	10.50,	5.26,	10.65,	14.64,	11.69,	13.50,	14.53,	1643,	1663
110,	8500,	7910,	8984,	8304,	7579,	8341,	7893,	8607,	8252,	8326,	8292,	8502,	8375,	8198,	12.10,	11.50,	14.16,	0.84,	9.01,	1.14,	1.91,	10.50,	5.26,	10.65,	14.65,	11.69,	13.50,	14.53,	1643,	1662
111,	8528,	7919,	9011,	8320,	7631,	8341,	7926,	8602,	8257,	8330,	8296,	8529,	8368,	8201,	12.10,	11.50,	14.16,	0.84,	9.01,	1.14,	1.91,	10.50,	5.26,	10.65,	14.65,	11.70,	13.50,	14.53,	1643,	1662
112,	8539,	7910,	9014,	8319,	7581,	8351,	7955,	8573,	8252,	8301,	8277,	8533,	8348,	8197,	12.10,	11.50,	14.16,	0.84,	9.01,	1.14,	1.91,	10.50,	5.26,	10.65,	14.65,	11.70,	13.50,	14.53,	1642,	1662
113,	8535,	7922,	9020,	8334,	7575,	8372,	7973,	8604,	8268,	8314,	8284,	8538,	8366,	8217,	12.10,	11.50,	14.16,	0.84,	9.01,	1.14,	1.91,	10.50,	5.26,	10.65,	14.65,	11.70,	13.50,	14.53,	1642,	1662
114,	8563,	7947,	9040,	8359,	7593,	8379,	7968,	8639,	8283,	8339,	8311,	8553,	8387,	8231,	12.10,	11.50,	14.16,	0.84,	9.01,	1.14,	1.91,	10.50,	5.26,	10.65,	14.64,	11.70,	13.50,	14.53,	1642,	1662
115,	8524,	7909,	9024,	8339,	7558,	8362,	7931,	8589,	8256,	8313,	8293,	8527,	8358,	8212,	12.10,	11.50,	14.16,	0.84,	9.01,	1.14,	1.91,	10.50,	5.26,	10.65,	14.64,	11.72,	13.50,	14.53,	1642,	1662
116,	8489,	7859,	8965,	8285,	7571,	8346,	7915,	8542,	8182,	8252,	8224,	8479,	8290,	8156,	12.10,	11.50,	14.16,	0.84,	9.01,	1.14,	1.91,	10.50,	5.26,	10.65,	14.64,	11.72,	13.50,	14.53,	1642,	1660
117,	8463,	7829,	8898,	8241,	7533,	8338,	7911,	8531,	8135,	8203,	8164,	8426,	8240,	8093,	12.10,	11.50,	14.16,	0.84,	9.01,	1.14,	1.91,	10.50,	5.26,	10.65,	14.64,	11.72,	13.50,	14.56,	1642,	1659
118,	8479,	7828,	8923,	8253,	7558,	8362,	7955,	8558,	8186,	8224,	8187,	8452,	8267,	8119,	12.10,	11.50,	14.16,	0.84,	9.01,	1.14,	1.91,	10.50,	5.26,	10.65,	14.68,	11.72,	13.50,	14.56,	1642,	1659
119,	8575,	7885,	9024,	8323,	7582,	8397,	8010,	8627,	8267,	8299,	8280,	8547,	8348,	8213,	12.10,	11.50,	14.16,	0.84,	9.01,	1.14,	1.91,	10.50,	5.26,	10.65,	14.68,	11.70,	13.50,	14.56,	1643,	1659
120,	8576,	7909,	9047,	8366,	7505,	8390,	7975,	8651,	8293,	8338,	8337,	8575,	8396,	8248,	12.10,	11.50,	14.16,	0.84,	9.01,	1.14,	1.91,	10.50,	5.26,	10.65,	14.68,	11.70,	13.50,	14.56,	1643,	1659
121,	8547,	7870,	9015,	8343,	7538,	8369,	7930,	8621,	8271,	8319,	8313,	8565,	8378,	8216,	12.10,	11.50,	14.16,	0.84,	9.01,	1.14,	1.91,	10.50,	5.26,	10.65,	14.68,	11.70,	13.50,	14.55,	1644,	1660
122,	8554,	7849,	9009,	8318,	7542,	8372,	7947,	8591,	8249,	8296,	8283,	8547,	8338,	8190,	12.10,	11.50,	14.16,	0.84,	9.01,	1.14,	1.91,	10.50,	5.26,	10.65,	14.68,	11.70,	13.50,	14.55,	1644,	1660
123,	8543,	7849,	9012,	8335,	7515,	8381,	7968,	8595,	8249,	8300,	8287,	8534,	8338,	8193,	12.10,	11.50,	14.16,	0.84,	9.01,	1.14,	1.91,	10.50,	5.26,	10.65,	14.68,	11.67,	13.50,	14.55,	1645,	1661
124,	8579,	7837,	9020,	8344,	7558,	8383,	7979,	8624,	8261,	8318,	8296,	8559,	8365,	8210,	12.10,	11.50,	14.16,	0.84,	9.01,	1.14,	1.91,	10.50,	5.26,	10.65,	14.68,	11.67,	13.50,	14.55,	1645,	1657
125,	8594,	7829,	9037,	8350,	7549,	8397,	7996,	8636,	8287,	8336,	8322,	8571,	8391,	8230,	12.10,	11.50,	14.16,	0.84,	9.01,	1.14,	1.91,	10.50,	5.26,	10.65,	14.68,	11.67,	13.50,	14.52,	1645,	1658
126,	8598,	7852,	9056,	8379,	7570,	8407,	8004,	8646,	8291,	8341,	8343,	8585,	8402,	8247,	12.10,	11.50,	14.16,	0.84,	9.01,	1.14,	1.91,	10.50,	5.26,	10.65,	14.64,	11.67,	13.50,	14.52,	1646,	1655
127,	8614,	7849,	9053,	8377,	7542,	8406,	8005,	8647,	8275,	8334,	8338,	8598,	8396,	8247,	12.10,	11.50,	14.16,	0.84,	9.01,	1.14,	1.91,	10.50,	5.26,	10.65,	14.64,	11.69,	13.50,	14.52,	1644,	1657
0,	8587,	7791,	9039,	8362,	7587,	8405,	7986,	8612,	8268,	8323,	8326,	8594,	8378,	8231,	12.24,	11.50,	14.16,	0.84,	9.01,	1.14,	1.91,	10.50,	5.26,	10.65,	14.64,	11.69,	13.50,	14.52,	1643,	1656
1,	8587,	7780,	9032,	8364,	7551,	8398,	7974,	8616,	8266,	8320,	8324,	8596,	8380,	8230,	12.24,	11.53,	14.16,	0.84,	9.01,	1.14,	1.91,	10.50,	5.26,	10.65,	14.64,	11.69,	13.50,	14.52,	1642,	1658
2,	8563,	7755,	9030,	8353,	7535,	8404,	8013,	8637,	8275,	8331,	8324,	8587,	8386,	8235,	12.24,	11.53,	14.18,	0.84,	9.01,	1.14,	1.91,	10.50,	5.26,	10.65,	14.64,	11.69,	13.50,	14.52,	1642,	1657
3,	8586,	7751,	9029,	8345,	7553,	8405,	8035,	8650,	8275,	8346,	8320,	8585,	8384,	8237,	12.24,	11.53,	14.18,	0.87,	9.01,	1.14,	1.91,	10.50,	5.26,	10.65,	14.64,	11.69,	13.50,	14.52,	1642,	1659
4,	8571,	7742,	9020,	8335,	7525,	8383,	7972,	8614,	8266,	8333,	8308,	8573,	8375,	8222,	12.24,	11.53,	14.18,	0.87,	9.54,	1.14,	1.91,	10.50,	5.26,	10.65,	14.64,	11.69,	13.50,	14.52,	1641,	1658
5,	8583,	7735,	9025,	8340,	7556,	8376,	7936,	8595,	8258,	8312,	8290,	8585,	8367,	8208,	12.24,	11.53,	14.18,	0.87,	9.54,	1.13,	1.91,	10.50,	5.26,	10.65,	14.64,	11.69,	13.50,	14.52,	1640,	1659
6,	8616,	7733,	9030,	8357,	7516,	8398,	7989,	8609,	8258,	8313,	8300,	8595,	8375,	8220,	12.24,	11.53,	14.18,	0.87,	9.54,	1.13,	1.91,	10.50,	5.26,	10.65,	14.64,	11.69,	13.50,	14.52,	1641,	1659
7,	8610,	7731,	9033,	8358,	7520,	8413,	8026,	8620,	8260,	8327,	8342,	8595,	8393,	8236,	12.24,	11.53,	14.18,	0.87,	9.54,	1.13,	1.91,	10.64,	5.26,	10.65,	14.64,	11.69,	13.50,	14.52,	1641,	1661
8,	8650,	7745,	9043,	8365,	7575,	8402,	7991,	8636,	8265,	8344,	8348,	8606,	8391,	8238,	12.24,	11.53,	14.18,	0.87,	9.54,	1.13,	1.91,	10.64,	5.26,	10.65,	14.64,	11.69,	13.50,	14.52,	1642,	1660
9,	8665,	7729,	9033,	8367,	7525,	8391,	7955,	8625,	8267,	8351,	8313,	8587,	8385,	8225,	12.24,	11.53,	14.18,	0.87,	9.54,	1.13,	1.91,	10.64,	5.26,	10.65,	14.64,	11.69,	13.50,	14.52,	1641,	1660
10,	8666,	7709,	9026,	8342,	7547,	8393,	7973,	8610,	8252,	8340,	8307,	8581,	8391,	8215,	12.24,	11.53,	14.18,	0.87,	9.54,	1.13,	1.91,	10.64,	5.26,	10.65,	14.65,	11.69,	13.50,	14.52,	1642,	1661
11,	8670,	7730,	9023,	8335,	7560,	8392,	7986,	8609,	8244,	8329,	8319,	8590,	8393,	8220,	12.24,	11.53,	14.18,	0.87,	9.54,	1.13,	1.91,	10.64,	5.26,	10.65,	14.65,	11.64,	13.50,	14.52,	1640,	1659
12,	8634,	7737,	9002,	8347,	7541,	8392,	7978,	8597,	8253,	8339,	8315,	8583,	8389,	8227,	12.24,	11.53,	14.18,	0.87,	9.54,	1.13,	1.91,	10.64,	5.26,	10.65,	14.65,	11.64,	13.48,	14.52,	1641,	1660
13,	8636,	7721,	8986,	8332,	7551,	8393,	7979,	8601,	8243,	8340,	8300,	8582,	8375,	8215,	12.24,	11.53,	14.18,	0.87,	9.54,	1.13,	1.91,	10.64,	5.26,	10.65,	14.65,	11.64,	13.48,	14.56,	1642,	1660
14,	8606,	7701,	8955,	8310,	7490,	8385,	7965,	8607,	8216,	8318,	8280,	8554,	8348,	8187,	12.24,	11.53,	14.18,	0.87,	9.54,	1.13,	1.91,	10.64,	5.26,	10.65,	14.65,	11.64,	13.48,	14.56,	1640,	1662
15,	8584,	7703,	8946,	8328,	7521,	8372,	7959,	8605,	8219,	8312,	8270,	8551,	8330,	8178,	12.24,	11.53,	14.18,	0.87,	9.54,	1.13,	1.91,	10.64,	5.26,	10.65,	14.65,	11.66,	13.48,	14.56,	1641,	1662
16,	8629,	7728,	8981,	8360,	7547,	8375,	7971,	8612,	8251,	8336,	8296,	8588,	8354,	8195,	12.24,	11.53,	14.18,	0.87,	9.54,	1.13,	1.91,	10.64,	5.26,	10.65,	14.65,	11.66,	13.48,	14.56,	1641,	1663
17,	8613,	7715,	9002,	8358,	7508,	8391,	7980,	8615,	8259,	8346,	8317,	8594,	8381,	8212,	12.24,	11.53,	14.18,	0.87,	9.54,	1.13,	1.91,	10.64,	5.26,	10.65,	14.65,	11.66,	13.48,	14.56,	1643,	1663
18,	8609,	7699,	8991,	8337,	7563,	8388,	7999,	8618,	8236,	8333,	8297,	8596,	8377,	8218,	12.24,	11.53,	14.18,	0.87,	9.54,	1.13,	1.91,	10.64,	5.26,	10.65,	14.65,	11.66,	13.48,	14.56,	1643,	1663
19,	8602,	7705,	8964,	8333,	7556,	8374,	7999,	8617,	8240,	8330,	8297,	8599,	8369,	8218,	12.24,	11.53,	14.18,	0.87,	9.54,	1.13,	1.91,	10.64,	5.26,	10.65,	14.65,	11.66,	13.48,	14.56,	1645,	1663
20,	8589,	7713,	8970,	8354,	7553,	8386,	7977,	8635,	8274,	8358,	8321,	8616,	8383,	8231,	12.24,	11.53,	14.18,	0.87,	9.54,	1.13,	1.91,	10.64,	5.26,	10.65,	14.65,	11.66,	13.48,	14.56,	1644,	1662
21,	8648,	7728,	9014,	8379,	7581,	8410,	8014,	8670,	8283,	8384,	8332,	8647,	8409,	8255,	12.24,	11.53,	14.18,	0.87,	9.54,	1.13,	1.91,	10.64,	5.26,	10.65,	14.65,	11.66,	13.48,	14.56,	1646,	1664
22,	8638,	7715,	9010,	8380,	7551,	8402,	8035,	8668,	8270,	8367,	8323,	8630,	8406,	8245,	12.24,	11.53,	14.18,	0.87,	9.54,	1.13,	1.91,	10.64,	5.26,	10.65,	14.65,	11.66,	13.48,	14.56,	1645,	1662
23,	8599,	7696,	8971,	8351,	7572,	8369,	7973,	8634,	8256,	8332,	8288,	8603,	8362,	8206,	12.24,	11.53,	14.18,	0.87,	9.54,	1.13,	1.91,	10.64,	5.26,	10.65,	14.65,	11.66,	13.48,	14.56,	1645,	1663
24,	8606,	7689,	8953,	8324,	7520,	8352,	7947,	8601,	8244,	8319,	8263,	8589,	8327,	8190,	12.24,	11.53,	14.18,	0.87,	9.54,	1.13,	1.91,	10.64,	5.26,	10.65,	14.65,	11.66,	13.48,	14.56,	1645,	1662
25,	8622,	7692,	8974,	8335,	7492,	8362,	7993,	8611,	8252,	8332,	8285,	8598,	8356,	8209,	12.24,	11.53,	14.18,	0.87,	9.54,	1.13,	1.91,	10.64,	5.26,	10.65,	14.65,	11.66,	13.48,	14.56,	1644,	1663
26,	8667,	7701,	8994,	8353,	7547,	8372,	8004,	8646,	8268,	8336,	8313,	8622,	8386,	8227,	12.24,	11.53,	14.18,	0.87,	9.54,	1.13,	1.91,	10.64,	5.26,	10.65,	14.65,	11.66,	13.48,	14.56,	1645,	1663
27,	8648,	7694,	8982,	8353,	7510,	8368,	7974,	8634,	8270,	8318,	8304,	8607,	8370,	8222,	12.24,	11.53,	14.18,	0.87,	9.54,	1.13,	1.91,	10.64,	5.26,	10.65,	14.65,	11.66,	13.48,	14.56,	1643,	1663
28,	8632,	7689,	8983,	8350,	7526,	8371,	7996,	8633,	8256,	8311,	8294,	8611,	8364,	8219,	12.24,	11.53,	14.18,	0.87,	9.54,	1.13,	1.91,	10.64,	5.26,	10.65,	14.65,	11.66,	13.48,	14.56,	1644,	1662
29,	8655,	7677,	8990,	8337,	7531,	8368,	7999,	8656,	8249,	8324,	8299,	8621,	8375,	8225,	12.24,	11.53,	14.18,	0.87,	9.54,	1.13,	1.91,	10.64,	5.26,	10.65,	14.65,	11.66,	13.48,	14.56,	1644,	1661
30,	8624,	7665,	8974,	8330,	7506,	8353,	7962,	8636,	8248,	8329,	8303,	8601,	8379,	8230,	12.24,	11.53,	14.18,	0.87,	9.54,	1.13,	1.91,	10.64,	5.26,	10.65,	14.65,	11.66,	13.48,	14.56,	1644,	1661
31,	8636,	7670,	8970,	8345,	7524,	8343,	7971,	8618,	8223,	8311,	8296,	8601,	8365,	8222,	12.24,	11.53,	14.18,	0.87,	9.54,	1.13,	1.91,	10.64,	5.26,	10.65,	14.65,	11.66,	13.48,	14.56,	1643,	1661
32,	8644,	7645,	8965,	8338,	7461,	8341,	7972,	8626,	8219,	8288,	8283,	8579,	8348,	8205,	12.24,	11.53,	14.18,	0.87,	9.54,	1.13,	1.91,	10.64,	5.26,	10.65,	14.65,	11.66,	13.48,	14.56,	1644,	1662
33,	8628,	7617,	8957,	8323,	7494,	8338,	7950,	8634,	8242,	8289,	8283,	8563,	8342,	8202,	12.24,	11.53,	14.18,	0.87,	9.54,	1.13,	1.91,	10.64,	5.26,	10.65,	14.65,	11.66,	13.48,	14.56,	1642,	1661
34,	8647,	7623,	8958,	8322,	7546,	8342,	7967,	8627,	8232,	8300,	8283,	8571,	8348,	8205,	12.24,	11.53,	14.18,	0.87,	9.54,	1.13,	1.91,	10.64,	5.26,	10.65,	14.65,	11.66,	13.48,	14.56,	1643,	1662
35,	8617,	7606,	8949,	8314,	7497,	8336,	7976,	8605,	8213,	8288,	8275,	8549,	8348,	8196,	12.24,	11.53,	14.18,	0.87,	9.54,	1.13,	1.91,	10.64,	5.26,	10.65,	14.65,	11.66,	13.48,	14.56,	1644,	1661
36,	8621,	7588,	8941,	8305,	7536,	8318,	7943,	8601,	8222,	8275,	8264,	8541,	8329,	8180,	12.24,	11.53,	14.18,	0.87,	9.54,	1.13,	1.91,	10.64,	5.26,	10.65,	14.65,	11.66,	13.48,	14.56,	1642,	1663
37,	8650,	7596,	8937,	8314,	7547,	8314,	7942,	8600,	8233,	8282,	8269,	8548,	8326,	8179,	12.24,	11.53,	14.18,	0.87,	9.54,	1.13,	1.91,	10.64,	5.26,	10.65,	14.65,	11.66,	13.48,	14.56,	1644,	1662
38,	8634,	7595,	8941,	8320,	7553,	8318,	7976,	8605,	8228,	8283,	8275,	8551,	8341,	8192,	12.24,	11.53,	14.18,	0.87,	9.54,	1.13,	1.91,	10.64,	5.26,	10.65,	14.65,	11.66,	13.48,	14.56,	1644,	1662
39,	8662,	7598,	8961,	8312,	7571,	8314,	7971,	8627,	8230,	8283,	8275,	8569,	8352,	8197,	12.24,	11.53,	14.18,	0.87,	9.54,	1.13,	1.91,	10.64,	5.26,	10.65,	14.65,	11.66,	13.48,	14.56,	1645,	1662
40,	8672,	7603,	8967,	8314,	7534,	8317,	7966,	8629,	8241,	8294,	8294,	8572,	8358,	8208,	12.24,	11.53,	14.18,	0.87,	9.54,	1.13,	1.91,	10.64,	5.26,	10.65,	14.65,	11.66,	13.48,	14.56,	1644,	1662
41,	8682,	7602,	8965,	8322,	7601,	8327,	7987,	8630,	8237,	8288,	8294,	8577,	8350,	8211,	12.24,	11.53,	14.18,	0.87,	9.54,	1.13,	1.91,	10.64,	5.26,	10.65,	14.65,	11.66,	13.48,	14.56,	1645,	1660
42,	8692,	7591,	8957,	8310,	7600,	8312,	7963,	8628,	8231,	8265,	8259,	8563,	8323,	8183,	12.24,	11.53,	14.18,	0.87,	9.54,	1.13,	1.91,	10.64,	5.26,	10.65,	14.65,	11.66,	13.48,	14.56,	1645,	1660
43,	8654,	7572,	8941,	8290,	7554,	8293,	7923,	8609,	8230,	8267,	8241,	8533,	8309,	8161,	12.24,	11.53,	14.18,	0.87,	9.54,	1.13,	1.91,	10.64,	5.26,	10.65,	14.65,	11.66,	13.48,	14.56,	1645,	1660
44,	8675,	7565,	8936,	8291,	7608,	8303,	7934,	8607,	8210,	8276,	8245,	8536,	8312,	8158,	12.24,	11.53,	14.18,	0.87,	9.54,	1.13,	1.91,	10.64,	5.26,	10.65,	14.65,	11.66,	13.48,	14.56,	1644,	1662
45,	8676,	7550,	8923,	8292,	7593,	8316,	7947,	8608,	8194,	8261,	8247,	8530,	8313,	8153,	12.24,	11.53,	14.18,	0.87,	9.54,	1.13,	1.91,	10.64,	5.26,	10.65,	14.65,	11.66,	13.48,	14.56,	1645,	1662
46,	8660,	7550,	8920,	8283,	7593,	8302,	7943,	8613,	8204,	8260,	8248,	8530,	8311,	8156,	12.24,	11.53,	14.18,	0.87,	9.54,	1.13,	1.91,	10.64,	5.26,	10.65,	14.65,	11.66,	13.48,	14.56,	1644,	1662
47,	8675,	7555,	8913,	8261,	7574,	8281,	7929,	8599,	8202,	8260,	8234,	8523,	8288,	8146,	12.24,	11.53,	14.18,	0.87,	9.54,	1.13,	1.91,	10.64,	5.26,	10.65,	14.65,	11.66,	13.48,	14.56,	1644,	1660
48,	8655,	7541,	8903,	8256,	7550,	8289,	7923,	8583,	8202,	8248,	8235,	8504,	8286,	8139,	12.24,	11.53,	14.18,	0.87,	9.54,	1.13,	1.91,	10.64,	5.26,	10.65,	14.65,	11.66,	13.48,	14.56,	1643,	1661
49,	8694,	7582,	8938,	8297,	7616,	8319,	7970,	8628,	8229,	8271,	8266,	8541,	8330,	8179,	12.24,	11.53,	14.18,	0.87,	9.54,	1.13,	1.91,	10.64,	5.26,	10.65,	14.65,	11.66,	13.48,	14.56,	1644,	1661
50,	8706,	7603,	8947,	8310,	7574,	8321,	7992,	8646,	8232,	8293,	8266,	8546,	8338,	8191,	12.24,	11.53,	14.18,	0.87,	9.54,	1.13,	1.91,	10.64,	5.26,	10.65,	14.65,	11.66,	13.48,	14.56,	1643,	1661
51,	8671,	7563,	8928,	8274,	7568,	8303,	7960,	8620,	8206,	8280,	8250,	8520,	8311,	8164,	12.24,	11.53,	14.18,	0.87,	9.54,	1.13,	1.91,	10.64,	5.26,	10.65,	14.65,	11.66,	13.48,	14.56,	1644,	1661
52,	8701,	7573,	8935,	8271,	7622,	8310,	7954,	8623,	8214,	8283,	8259,	8533,	8316,	8169,	12.24,	11.53,	14.18,	0.87,	9.54,	1.13,	1.91,	10.64,	5.26,	10.65,	14.65,	11.66,	13.48,	14.56,	1643,	1659
53,	8679,	7586,	8916,	8294,	7591,	8313,	7951,	8611,	8230,	8278,	8253,	8524,	8323,	8166,	12.24,	11.53,	14.18,	0.87,	9.54,	1.13,	1.91,	10.64,	5.26,	10.65,	14.65,	11.66,	13.48,	14.56,	1642,	1659
54,	8666,	7562,	8903,	8277,	7607,	8300,	7939,	8598,	8210,	8247,	8230,	8518,	8302,	8149,	12.24,	11.53,	14.18,	0.87,	9.54,	1.13,	1.91,	10.64,	5.26,	10.65,	14.65,	11.66,	13.48,	14.56,	1643,	1657
55,	8693,	7564,	8924,	8258,	7592,	8307,	7955,	8612,	8198,	8251,	8239,	8518,	8301,	8163,	12.24,	11.53,	14.18,	0.87,	9.54,	1.13,	1.91,	10.64,	5.26,	10.65,	14.65,	11.66,	13.48,	14.56,	1641,	1658
56,	8662,	7565,	8908,	8267,	7587,	8306,	7951,	8599,	8205,	8262,	8247,	8493,	8304,	8164,	12.24,	11.53,	14.18,	0.87,	9.54,	1.13,	1.91,	10.64,	5.26,	10.65,	14.65,	11.66,	13.48,	14.56,	1643,	1659
57,	8675,	7544,	8895,	8269,	7608,	8289,	7926,	8588,	8208,	8251,	8232,	8490,	8294,	8145,	12.24,	11.53,	14.18,	0.87,	9.54,	1.13,	1.91,	10.64,	5.26,	10.65,	14.65,	11.66,	13.48,	14.56,	1642,	1660
58,	8691,	7532,	8922,	8256,	7544,	8289,	7923,	8605,	8218,	8263,	8241,	8500,	8305,	8164,	12.24,	11.53,	14.18,	0.87,	9.54,	1.13,	1.91,	10.64,	5.26,	10.65,	14.65,	11.66,	13.48,	14.56,	1643,	1661
59,	8683,	7558,	8923,	8252,	7582,	8288,	7930,	8613,	8205,	8268,	8253,	8506,	8318,	8181,	12.24,	11.53,	14.18,	0.87,	9.54,	1.13,	1.91,	10.64,	5.26,	10.65,	14.65,	11.66,	13.48,	14.56,	1643,	1661
60,	8692,	7582,	8898,	8251,	7600,	8276,	7932,	8601,	8184,	8244,	8246,	8504,	8315,	8169,	12.24,	11.53,	14.18,	0.87,	9.54,	1.13,	1.91,	10.64,	5.26,	10.65,	14.65,	11.66,	13.48,	14.56,	1644,	1661
61,	8694,	7583,	8917,	8264,	7548,	8289,	7962,	8616,	8214,	8260,	8264,	8514,	8325,	8184,	12.24,	11.53,	14.18,	0.87,	9.54,	1.13,	1.91,	10.64,	5.26,	10.65,	14.65,	11.66,	13.48,	14.56,	1642,	1660
62,	8727,	7592,	8945,	8278,	7565,	8301,	7979,	8645,	8230,	8289,	8278,	8536,	8331,	8205,	12.24,	11.53,	14.18,	0.87,	9.54,	1.13,	1.91,	10.64,	5.26,	10.65,	14.65,	11.66,	13.48,	14.56,	1643,	1661
63,	8704,	7583,	8909,	8267,	7542,	8285,	7950,	8616,	8190,	8262,	8256,	8509,	8315,	8178,	12.24,	11.53,	14.18,	0.87,	9.54,	1.13,	1.91,	10.64,	5.26,	10.65,	14.65,	11.66,	13.48,	14.56,	1642,	1660
64,	8676,	7568,	8889,	8253,	7570,	8283,	7953,	8598,	8179,	8234,	8242,	8488,	8307,	8156,	11.93,	11.53,	14.18,	0.87,	9.54,	1.13,	1.91,	10.64,	5.26,	10.65,	14.65,	11.66,	13.48,	14.56,	1642,	1663
65,	8731,	7597,	8924,	8259,	7563,	8296,	7964,	8629,	8209,	8249,	8258,	8507,	8315,	8168,	11.93,	11.32,	14.18,	0.87,	9.54,	1.13,	1.91,	10.64,	5.26,	10.65,	14.65,	11.66,	13.48,	14.56,	1642,	1662
66,	8734,	7630,	8931,	8265,	7517,	8286,	7923,	8628,	8220,	8270,	8276,	8509,	8320,	8178,	11.93,	11.32,	14.21,	0.87,	9.54,	1.13,	1.91,	10.64,	5.26,	10.65,	14.65,	11.66,	13.48,	14.56,	1641,	1662
67,	8746,	7660,	8922,	8272,	7599,	8278,	7923,	8620,	8205,	8276,	8268,	8519,	8316,	8178,	11.93,	11.32,	14.21,	0.87,	9.54,	1.13,	1.91,	10.64,	5.26,	10.65,	14.65,	11.66,	13.48,	14.56,	1642,	1661
68,	8764,	7695,	8930,	8287,	7583,	8289,	7974,	8634,	8205,	8274,	8257,	8514,	8316,	8180,	11.93,	11.32,	14.21,	0.87,	9.99,	1.13,	1.91,	10.64,	5.26,	10.65,	14.65,	11.66,	13.48,	14.56,	1641,	1660
69,	8744,	7714,	8931,	8284,	7550,	8292,	7971,	8646,	8214,	8280,	8258,	8501,	8319,	8180,	11.93,	11.32,	14.21,	0.87,	9.99,	1.17,	1.91,	10.64,	5.26,	10.65,	14.65,	11.66,	13.48,	14.56,	1642,	1661
70,	8765,	7723,	8918,	8258,	7590,	8284,	7927,	8645,	8206,	8284,	8255,	8505,	8312,	8175,	11.93,	11.32,	14.21,	0.87,	9.99,	1.17,	1.94,	10.64,	5.26,	10.65,	14.65,	11.66,	13.48,	14.56,	1641,	1660
71,	8750,	7738,	8913,	8250,	7567,	8285,	7921,	8618,	8188,	8262,	8256,	8495,	8304,	8167,	11.93,	11.32,	14.21,	0.87,	9.99,	1.17,	1.94,	10.74,	5.26,	10.65,	14.65,	11.66,	13.48,	14.56,	1641,	1661
72,	8769,	7804,	8946,	8278,	7590,	8308,	7962,	8631,	8185,	8259,	8278,	8518,	8322,	8185,	11.93,	11.32,	14.21,	0.87,	9.99,	1.17,	1.94,	10.74,	5.24,	10.65,	14.65,	11.66,	13.48,	14.56,	1641,	1661
73,	8817,	7868,	8971,	8297,	7560,	8322,	7975,	8660,	8208,	8286,	8288,	8546,	8344,	8208,	11.93,	11.32,	14.21,	0.87,	9.99,	1.17,	1.94,	10.74,	5.24,	10.65,	14.65,	11.66,	13.48,	14.56,	1643,	1662
74,	8780,	7888,	8952,	8282,	7536,	8300,	7934,	8638,	8213,	8278,	8263,	8525,	8333,	8197,	11.93,	11.32,	14.21,	0.87,	9.99,	1.17,	1.94,	10.74,	5.24,	10.65,	14.68,	11.48,	13.50,	14.56,	1643,	1659
75,	8793,	7933,	8944,	8272,	7605,	8280,	7919,	8630,	8192,	8273,	8257,	8529,	8321,	8185,	11.93,	11.32,	14.21,	0.87,	9.99,	1.17,	1.94,	10.74,	5.24,	10.65,	14.68,	11.48,	13.50,	14.56,	1643,	1660
76,	8815,	7970,	8942,	8274,	7554,	8287,	7931,	8624,	8180,	8296,	8268,	8531,	8320,	8181,	11.93,	11.32,	14.21,	0.87,	9.99,	1.17,	1.94,	10.74,	5.24,	10.65,	14.68,	11.48,	13.50,	14.56,	1645,	1660
77,	8766,	7956,	8920,	8244,	7530,	8285,	7923,	8592,	8155,	8274,	8230,	8489,	8283,	8144,	11.93,	11.32,	14.21,	0.87,	9.99,	1.17,	1.94,	10.74,	5.24,	10.65,	14.68,	11.48,	13.50,	14.56,	1644,	1660
78,	8729,	7934,	8865,	8171,	7567,	8256,	7887,	8565,	8102,	8201,	8152,	8425,	8217,	8077,	12.09,	11.19,	14.31,	0.84,	9.79,	1.13,	1.94,	10.76,	5.23,	10.64,	14.64,	11.59,	13.50,	14.56,	1647,	1660
79,	8692,	7935,	8809,	8136,	7526,	8256,	7872,	8547,	8091,	8170,	8120,	8373,	8192,	8043,	12.09,	11.19,	14.31,	0.84,	9.79,	1.13,	1.94,	10.76,	5.23,	10.64,	14.64,	11.59,	13.50,	14.56,	1646,	1659
80,	8738,	7991,	8850,	8188,	7542,	8297,	7926,	8578,	8150,	8222,	8169,	8419,	8237,	8093,	12.09,	11.19,	14.31,	0.84,	9.79,	1.13,	1.94,	10.76,	5.23,	10.64,	14.64,	11.59,	13.50,	14.56,	1646,	1660
81,	8821,	8058,	8938,	8246,	7538,	8325,	7975,	8634,	8211,	8299,	8238,	8497,	8311,	8166,	12.09,	11.19,	14.31,	0.84,	9.79,	1.13,	1.94,	10.76,	5.23,	10.64,	14.64,	11.59,	13.50,	14.56,	1646,	1660
82,	8816,	8074,	8957,	8254,	7537,	8321,	7964,	8639,	8217,	8322,	8259,	8506,	8336,	8186,	12.09,	11.19,	14.31,	0.84,	9.79,	1.13,	1.94,	10.76,	5.23,	10.64,	14.64,	11.59,	13.50,	14.56,	1646,	1662
83,	8818,	8069,	8934,	8245,	7553,	8295,	7940,	8609,	8196,	8296,	8240,	8498,	8298,	8168,	12.09,	11.19,	14.31,	0.84,	9.79,	1.13,	1.94,	10.76,	5.23,	10.64,	14.64,	11.59,	13.50,	14.56,	1646,	1662
84,	8817,	8080,	8940,	8258,	7509,	8288,	7951,	8607,	8197,	8283,	8248,	8499,	8294,	8168,	12.09,	11.19,	14.31,	0.84,	9.79,	1.13,	1.94,	10.76,	5.23,	10.64,	14.64,	11.59,	13.50,	14.56,	1646,	1663
85,	8816,	8097,	8955,	8264,	7551,	8302,	7967,	8621,	8194,	8278,	8259,	8501,	8315,	8170,	12.09,	11.19,	14.31,	0.84,	9.79,	1.13,	1.94,	10.76,	5.23,	10.64,	14.64,	11.59,	13.50,	14.56,	1646,	1662
86,	8811,	8089,	8933,	8240,	7560,	8298,	7939,	8601,	8169,	8257,	8229,	8485,	8288,	8143,	12.09,	11.19,	14.31,	0.84,	9.79,	1.13,	1.94,	10.76,	5.23,	10.64,	14.64,	11.59,	13.50,	14.56,	1646,	1662
87,	8780,	8087,	8913,	8233,	7529,	8285,	7925,	8584,	8169,	8257,	8215,	8470,	8270,	8130,	12.09,	11.19,	14.31,	0.84,	9.79,	1.13,	1.94,	10.76,	5.23,	10.64,	14.64,	11.59,	13.50,	14.56,	1646,	1661
88,	8800,	8122,	8931,	8241,	7549,	8289,	7949,	8594,	8173,	8249,	8227,	8480,	8278,	8134,	12.09,	11.19,	14.31,	0.84,	9.79,	1.13,	1.94,	10.76,	5.23,	10.64,	14.64,	11.59,	13.50,	14.56,	1644,	1662
89,	8795,	8121,	8926,	8226,	7535,	8289,	7932,	8585,	8155,	8216,	8215,	8460,	8260,	8123,	12.09,	11.19,	14.31,	0.84,	9.79,	1.13,	1.94,	10.76,	5.23,	10.64,	14.64,	11.59,	13.50,	14.56,	1646,	1663
90,	8787,	8104,	8908,	8219,	7568,	8272,	7895,	8588,	8150,	8223,	8197,	8447,	8248,	8114,	12.09,	11.19,	14.31,	0.84,	9.79,	1.13,	1.94,	10.76,	5.23,	10.64,	14.64,	11.59,	13.50,	14.56,	1645,	1662
91,	8809,	8137,	8921,	8233,	7545,	8280,	7924,	8608,	8181,	8257,	8209,	8462,	8272,	8133,	12.09,	11.19,	14.31,	0.84,	9.79,	1.13,	1.94,	10.76,	5.23,	10.64,	14.64,	11.59,	13.50,	14.56,	1644,	1664
92,	8795,	8162,	8938,	8247,	7533,	8312,	7972,	8613,	8200,	8262,	8229,	8476,	8286,	8157,	12.09,	11.19,	14.31,	0.84,	9.79,	1.13,	1.94,	10.76,	5.23,	10.64,	14.64,	11.59,	13.50,	14.56,	1644,	1663
93,	8806,	8168,	8943,	8254,	7596,	8313,	7948,	8622,	8178,	8252,	8226,	8493,	8286,	8162,	12.09,	11.19,	14.31,	0.84,	9.79,	1.13,	1.94,	10.76,	5.23,	10.64,	14.64,	11.59,	13.50,	14.56,	1644,	1663
94,	8782,	8157,	8924,	8239,	7566,	8289,	7898,	8605,	8160,	8244,	8222,	8470,	8289,	8145,	12.09,	11.19,	14.31,	0.84,	9.79,	1.13,	1.94,	10.76,	5.23,	10.64,	14.64,	11.59,	13.50,	14.56,	1645,	1663
95,	8750,	8157,	8914,	8220,	7580,	8279,	7897,	8568,	8154,	8220,	8224,	8456,	8281,	8124,	12.09,	11.19,	14.31,	0.84,	9.79,	1.13,	1.94,	10.76,	5.23,	10.64,	14.64,	11.59,	13.50,	14.56,	1645,	1663
96,	8760,	8179,	8918,	8215,	7576,	8275,	7908,	8560,	8135,	8198,	8210,	8452,	8264,	8116,	12.09,	11.19,	14.31,	0.84,	9.79,	1.13,	1.94,	10.76,	5.23,	10.64,	14.64,	11.59,	13.50,	14.56,	1645,	1664
97,	8723,	8170,	8896,	8205,	7550,	8249,	7876,	8551,	8110,	8192,	8183,	8426,	8242,	8103,	12.09,	11.19,	14.31,	0.84,	9.79,	1.13,	1.94,	10.76,	5.23,	10.64,	14.64,	11.59,	13.50,	14.56,	1645,	1665
98,	8732,	8169,	8884,	8191,	7604,	8240,	7859,	8538,	8095,	8185,	8168,	8439,	8226,	8092,	12.09,	11.19,	14.31,	0.84,	9.79,	1.13,	1.94,	10.76,	5.23,	10.64,	14.64,	11.59,	13.50,	14.56,	1646,	1665
99,	8735,	8186,	8885,	8191,	7548,	8253,	7869,	8519,	8105,	8183,	8177,	8440,	8216,	8093,	12.09,	11.19,	14.31,	0.84,	9.79,	1.13,	1.94,	10.76,	5.23,	10.64,	14.64,	11.59,	13.50,	14.56,	1645,	1663
100,	8709,	8193,	8883,	8201,	7550,	8256,	7862,	8521,	8115,	8199,	8179,	8431,	8218,	8103,	12.09,	11.19,	14.31,	0.84,	9.79,	1.13,	1.94,	10.76,	5.23,	10.64,	14.64,	11.59,	13.50,	14.56,	1644,	1662
101,	8749,	8207,	8885,	8208,	7606,	8255,	7864,	8549,	8118,	8207,	8173,	8446,	8238,	8121,	12.09,	11.19,	14.31,	0.84,	9.79,	1.13,	1.94,	10.76,	5.23,	10.64,	14.64,	11.59,	13.50,	14.56,	1644,	1661
102,	8741,	8219,	8884,	8201,	7559,	8255,	7874,	8550,	8134,	8205,	8185,	8438,	8258,	8132,	12.09,	11.19,	14.31,	0.84,	9.79,	1.13,	1.94,	10.76,	5.23,	10.64,	14.64,	11.59,	13.50,	14.56,	1645,	1660
103,	8738,	8246,	8887,	8193,	7588,	8257,	7898,	8546,	8134,	8212,	8196,	8445,	8259,	8136,	12.09,	11.19,	14.31,	0.84,	9.79,	1.13,	1.94,	10.76,	5.23,	10.64,	14.64,	11.59,	13.50,	14.56,	1646,	1660
104,	8736,	8263,	8863,	8183,	7586,	8256,	7899,	8535,	8102,	8200,	8183,	8445,	8248,	8137,	12.09,	11.19,	14.31,	0.84,	9.79,	1.13,	1.94,	10.76,	5.23,	10.64,	14.64,	11.59,	13.50,	14.56,	1646,	1659
105,	8690,	8263,	8835,	8169,	7571,	8244,	7855,	8526,	8087,	8172,	8166,	8424,	8235,	8131,	12.09,	11.19,	14.31,	0.84,	9.79,	1.13,	1.94,	10.76,	5.23,	10.64,	14.64,	11.59,	13.50,	14.56,	1646,	1660
106,	8717,	8291,	8847,	8170,	7588,	8245,	7851,	8547,	8108,	8180,	8178,	8439,	8242,	8131,	12.09,	11.19,	14.31,	0.84,	9.79,	1.13,	1.94,	10.76,	5.23,	10.64,	14.64,	11.59,	13.50,	14.56,	1647,	1658
107,	8710,	8298,	8845,	8177,	7539,	8263,	7883,	8538,	8126,	8204,	8193,	8435,	8259,	8139,	12.09,	11.19,	14.31,	0.84,	9.79,	1.13,	1.94,	10.76,	5.23,	10.64,	14.64,	11.59,	13.50,	14.56,	1646,	1658
108,	8669,	8293,	8833,	8177,	7583,	8278,	7888,	8525,	8123,	8206,	8182,	8417,	8248,	8138,	12.09,	11.19,	14.31,	0.84,	9.79,	1.13,	1.94,	10.76,	5.23,	10.64,	14.64,	11.59,	13.50,	14.56,	1647,	1658
109,	8686,	8318,	8852,	8189,	7594,	8285,	7882,	8541,	8118,	8209,	8173,	8424,	8237,	8139,	12.09,	11.19,	14.31,	0.84,	9.79,	1.13,	1.94,	10.76,	5.23,	10.64,	14.64,	11.59,	13.50,	14.56,	1646,	1658
110,	8677,	8318,	8857,	8202,	7544,	8277,	7889,	8537,	8120,	8216,	8182,	8428,	8252,	8144,	12.09,	11.19,	14.31,	0.84,	9.79,	1.13,	1.94,	10.76,	5.23,	10.64,	14.64,	11.59,	13.50,	14.56,	1646,	1659
111,	8670,	8299,	8832,	8191,	7594,	8253,	7875,	8522,	8107,	8206,	8175,	8424,	8253,	8133,	12.09,	11.19,	14.31,	0.84,	9.79,	1.13,	1.94,	10.76,	5.23,	10.64,	14.64,	11.59,	13.50,	14.56,	1647,	1659
112,	8650,	8304,	8827,	8191,	7585,	8256,	7865,	8533,	8105,	8202,	8173,	8410,	8246,	8130,	12.09,	11.19,	14.31,	0.84,	9.79,	1.13,	1.94,	10.76,	5.23,	10.64,	14.64,	11.59,	13.50,	14.56,	1646,	1661
113,	8641,	8320,	8857,	8211,	7584,	8290,	7910,	8566,	8132,	8225,	8193,	8426,	8257,	8156,	12.09,	11.19,	14.31,	0.84,	9.79,	1.13,	1.94,	10.76,	5.23,	10.64,	14.64,	11.59,	13.50,	14.56,	1646,	1660
114,	8676,	8322,	8866,	8205,	7586,	8300,	7942,	8571,	8146,	8235,	8201,	8450,	8266,	8168,	12.09,	11.19,	14.31,	0.84,	9.79,	1.13,	1.94,	10.76,	5.23,	10.64,	14.64,	11.59,	13.50,	14.56,	1646,	1661
115,	8644,	8309,	8847,	8195,	7550,	8282,	7913,	8547,	8138,	8219,	8204,	8433,	8275,	8167,	12.09,	11.19,	14.31,	0.84,	9.79,	1.13,	1.94,	10.76,	5.23,	10.64,	14.64,	11.59,	13.50,	14.56,	1646,	1661
116,	8639,	8315,	8862,	8213,	7591,	8279,	7899,	8568,	8142,	8227,	8215,	8452,	8294,	8186,	12.09,	11.19,	14.31,	0.84,	9.79,	1.13,	1.94,	10.76,	5.23,	10.64,	14.64,	11.59,	13.50,	14.56,	1645,	1662
117,	8648,	8316,	8867,	8209,	7547,	8284,	7900,	8584,	8158,	8244,	8212,	8464,	8292,	8187,	12.09,	11.19,	14.31,	0.84,	9.79,	1.13,	1.94,	10.76,	5.23,	10.64,	14.64,	11.59,	13.50,	14.56,	1646,	1660
118,	8609,	8304,	8832,	8180,	7534,	8278,	7883,	8546,	8150,	8223,	8197,	8430,	8262,	8158,	12.09,	11.19,	14.31,	0.84,	9.79,	1.13,	1.94,	10.76,	5.23,	10.64,	14.64,	11.59,	13.50,	14.56,	1644,	1659
119,	8644,	8333,	8837,	8197,	7601,	8279,	7898,	8547,	8137,	8214,	8202,	8434,	8258,	8160,	12.09,	11.19,	14.31,	0.84,	9.79,	1.13,	1.94,	10.76,	5.23,	10.64,	14.64,	11.59,	13.50,	14.56,	1646,	1658
120,	8656,	8356,	8859,	8225,	7561,	8293,	7920,	8576,	8148,	8241,	8216,	8451,	8287,	8181,	12.09,	11.19,	14.31,	0.84,	9.79,	1.13,	1.94,	10.76,	5.23,	10.64,	14.64,	11.59,	13.50,	14.56,	1644,	1657
121,	8635,	8346,	8847,	8199,	7565,	8286,	7900,	8571,	8144,	8229,	8203,	8445,	8278,	8166,	12.09,	11.19,	14.31,	0.84,	9.79,	1.13,	1.94,	10.76,	5.23,	10.64,	14.64,	11.59,	13.50,	14.56,	1644,	1657
122,	8639,	8345,	8821,	8165,	7571,	8261,	7880,	8555,	8129,	8193,	8179,	8421,	8248,	8137,	12.09,	11.19,	14.31,	0.84,	9.79,	1.13,	1.94,	10.76,	5.23,	10.64,	14.64,	11.59,	13.50,	14.56,	1644,	1656
123,	8624,	8366,	8814,	8177,	7563,	8258,	7897,	8559,	8132,	8206,	8183,	8408,	8257,	8143,	12.09,	11.19,	14.31,	0.84,	9.79,	1.13,	1.94,	10.76,	5.23,	10.64,	14.64,	11.59,	13.50,	14.56,	1643,	1658
124,	8635,	8379,	8813,	8188,	7583,	8262,	7895,	8548,	8119,	8206,	8176,	8412,	8251,	8143,	12.09,	11.19,	14.31,	0.84,	9.79,	1.13,	1.94,	10.76,	5.23,	10.64,	14.64,	11.59,	13.50,	14.56,	1643,	1656
125,	8621,	8371,	8801,	8172,	7527,	8259,	7864,	8509,	8105,	8171,	8156,	8397,	8224,	8126,	12.09,	11.19,	14.31,	0.84,	9.79,	1.13,	1.94,	10.76,	5.23,	10.64,	14.64,	11.59,	13.50,	14.56,	1643,	1656
126,	8626,	8401,	8824,	8181,	7567,	8274,	7870,	8538,	8129,	8199,	8176,	8415,	8246,	8148,	12.09,	11.19,	14.31,	0.84,	9.79,	1.13,	1.94,	10.76,	5.23,	10.64,	14.64,	11.59,	13.50,	14.56,	1642,	1656
127,	8676,	8432,	8852,	8205,	7604,	8295,	7906,	8594,	8158,	8252,	8212,	8448,	8289,	8180,	12.09,	11.19,	14.31,	0.84,	9.79,	1.13,	1.94,	10.76,	5.23,	10.64,	14.64,	11.59,	13.50,	14.56,	1641,	1657
0,	8624,	8394,	8814,	8187,	7577,	8256,	7864,	8515,	8124,	8202,	8182,	8410,	8256,	8144,	12.09,	11.19,	14.31,	0.84,	9.79,	1.13,	1.94,	10.76,	5.23,	10.64,	14.64,	11.59,	13.50,	14.56,	1641,	1659
1,	8620,	8413,	8793,	8175,	7571,	8249,	7820,	8512,	8110,	8200,	8167,	8401,	8246,	8136,	12.09,	11.19,	14.31,	0.84,	9.79,	1.13,	1.94,	10.76,	5.23,	10.64,	14.64,	11.59,	13.50,	14.56,	1642,	1661
2,	8611,	8408,	8800,	8177,	7584,	8255,	7846,	8523,	8113,	8205,	8194,	8410,	8264,	8148,	12.09,	11.19,	14.31,	0.84,	9.79,	1.13,	1.94,	10.76,	5.23,	10.64,	14.64,	11.59,	13.50,	14.56,	1642,	1661
3,	8646,	8409,	8827,	8178,	7599,	8257,	7881,	8527,	8101,	8202,	8202,	8425,	8265,	8150,	12.09,	11.19,	14.31,	0.84,	9.79,	1.13,	1.94,	10.76,	5.23,	10.64,	14.64,	11.59,	13.50,	14.56,	1641,	1663
4,	8622,	8413,	8821,	8182,	7549,	8248,	7848,	8511,	8090,	8193,	8177,	8400,	8246,	8136,	12.09,	11.19,	14.31,	0.84,	9.79,	1.13,	1.94,	10.76,	5.23,	10.64,	14.64,	11.59,	13.50,	14.56,	1642,	1660
5,	8616,	8413,	8822,	8178,	7603,	8247,	7833,	8509,	8090,	8182,	8167,	8404,	8238,	8139,	12.09,	11.19,	14.31,	0.84,	9.79,	1.13,	1.94,	10.76,	5.23,	10.64,	14.64,	11.59,	13.50,	14.56,	1641,	1661
6,	8655,	8421,	8850,	8177,	7597,	8266,	7880,	8555,	8119,	8196,	8196,	8436,	8261,	8163,	12.09,	11.19,	14.31,	0.84,	9.79,	1.13,	1.94,	10.76,	5.23,	10.64,	14.64,	11.59,	13.50,	14.56,	1643,	1659
7,	8639,	8436,	8860,	8201,	7563,	8283,	7899,	8584,	8150,	8218,	8221,	8445,	8287,	8173,	12.09,	11.19,	14.31,	0.84,	9.79,	1.13,	1.94,	10.76,	5.23,	10.64,	14.64,	11.59,	13.50,	14.56,	1641,	1660
8,	8638,	8442,	8844,	8203,	7611,	8270,	7855,	8535,	8127,	8200,	8205,	8436,	8270,	8155,	12.09,	11.19,	14.31,	0.84,	9.79,	1.13,	1.94,	10.76,	5.23,	10.64,	14.64,	11.59,	13.50,	14.56,	1642,	1660
9,	8606,	8413,	8809,	8174,	7585,	8249,	7814,	8477,	8097,	8164,	8173,	8396,	8238,	8134,	12.09,	11.19,	14.31,	0.84,	9.79,	1.13,	1.94,	10.76,	5.23,	10.64,	14.64,	11.59,	13.50,	14.56,	1641,	1659
10,	8585,	8403,	8800,	8169,	7589,	8252,	7836,	8511,	8110,	8174,	8169,	8393,	8244,	8137,	12.09,	11.19,	14.31,	0.84,	9.79,	1.13,	1.94,	10.76,	5.23,	10.64,	14.64,	11.59,	13.50,	14.56,	1642,	1659
11,	8624,	8433,	8821,	8179,	7582,	8260,	7870,	8554,	8125,	8206,	8185,	8415,	8258,	8149,	12.09,	11.19,	14.31,	0.84,	9.79,	1.13,	1.94,	10.76,	5.23,	10.64,	14.64,	11.59,	13.50,	14.56,	1642,	1658
12,	8608,	8433,	8827,	8170,	7571,	8257,	7878,	8529,	8114,	8194,	8190,	8392,	8247,	8146,	12.09,	11.19,	14.31,	0.84,	9.79,	1.13,	1.94,	10.76,	5.23,	10.64,	14.64,	11.59,	13.50,	14.56,	1643,	1660
13,	8605,	8427,	8824,	8177,	7623,	8257,	7878,	8523,	8107,	8186,	8183,	8390,	8253,	8150,	12.09,	11.19,	14.31,	0.84,	9.79,	1.13,	1.94,	10.76,	5.23,	10.64,	14.64,	11.59,	13.50,	14.56,	1643,	1660
14,	8602,	8429,	8817,	8197,	7573,	8257,	7861,	8540,	8124,	8215,	8200,	8406,	8280,	8161,	12.09,	11.19,	14.31,	0.84,	9.79,	1.13,	1.94,	10.76,	5.23,	10.64,	14.64,	11.59,	13.50,	14.56,	1644,	1661
15,	8589,	8428,	8821,	8202,	7587,	8255,	7856,	8547,	8140,	8231,	8220,	8416,	8287,	8166,	12.09,	11.19,	14.31,	0.84,	9.79,	1.13,	1.94,	10.76,	5.23,	10.64,	14.64,	11.59,	13.50,	14.56,	1646,	1661
16,	8613,	8427,	8831,	8197,	7641,	8253,	7862,	8546,	8131,	8210,	8215,	8424,	8286,	8166,	12.09,	11.19,	14.31,	0.84,	9.79,	1.13,	1.94,	10.76,	5.23,	10.64,	14.64,	11.59,	13.50,	14.56,	1645,	1662
17,	8594,	8407,	8835,	8180,	7598,	8246,	7848,	8517,	8109,	8182,	8204,	8399,	8276,	8154,	12.09,	11.19,	14.31,	0.84,	9.79,	1.13,	1.94,	10.76,	5.23,	10.64,	14.64,	11.59,	13.50,	14.56,	1648,	1661
18,	8609,	8408,	8853,	8180,	7619,	8243,	7855,	8527,	8105,	8197,	8203,	8405,	8257,	8149,	12.09,	11.19,	14.31,	0.84,	9.79,	1.13,	1.94,	10.76,	5.23,	10.64,	14.64,	11.59,	13.50,	14.56,	1647,	1660
19,	8621,	8426,	8847,	8192,	7610,	8253,	7867,	8560,	8122,	8225,	8213,	8422,	8273,	8170,	12.09,	11.19,	14.31,	0.84,	9.79,	1.13,	1.94,	10.76,	5.23,	10.64,	14.64,	11.59,	13.50,	14.56,	1647,	1661
20,	8579,	8423,	8822,	8192,	7615,	8261,	7849,	8549,	8129,	8226,	8231,	8420,	8298,	8180,	12.09,	11.19,	14.31,	0.84,	9.79,	1.13,	1.94,	10.76,	5.23,	10.64,	14.64,	11.59,	13.50,	14.56,	1646,	1660
21,	8602,	8417,	8836,	8187,	7634,	8256,	7857,	8544,	8128,	8225,	8233,	8424,	8294,	8167,	12.09,	11.19,	14.31,	0.84,	9.79,	1.13,	1.94,	10.76,	5.23,	10.64,	14.64,	11.59,	13.50,	14.56,	1646,	1660
22,	8597,	8408,	8839,	8194,	7573,	8260,	7884,	8553,	8143,	8228,	8217,	8412,	8288,	8167,	12.09,	11.19,	14.31,	0.84,	9.79,	1.13,	1.94,	10.76,	5.23,	10.64,	14.64,	11.59,	13.50,	14.56,	1646,	1657
23,	8587,	8418,	8840,	8205,	7619,	8279,	7895,	8557,	8155,	8223,	8221,	8419,	8297,	8186,	12.09,	11.19,	14.31,	0.84,	9.79,	1.13,	1.94,	10.76,	5.23,	10.64,	14.64,	11.59,	13.50,	14.56,	1646,	1657
24,	8618,	8426,	8866,	8186,	7645,	8282,	7897,	8548,	8151,	8226,	8245,	8439,	8304,	8189,	12.09,	11.19,	14.31,	0.84,	9.79,	1.13,	1.94,	10.76,	5.23,	10.64,	14.64,	11.59,	13.50,	14.56,	1646,	1657
25,	8577,	8401,	8844,	8159,	7594,	8261,	7874,	8529,	8142,	8233,	8237,	8418,	8288,	8163,	12.09,	11.19,	14.31,	0.84,	9.79,	1.13,	1.94,	10.76,	5.23,	10.64,	14.64,	11.59,	13.50,	14.56,	1646,	1662
26,	8559,	8408,	8810,	8175,	7625,	8246,	7845,	8530,	8133,	8216,	8205,	8399,	8267,	8150,	12.09,	11.19,	14.31,	0.84,	9.79,	1.13,	1.94,	10.76,	5.23,	10.64,	14.64,	11.59,	13.50,	14.56,	1645,	1662
27,	8576,	8439,	8829,	8206,	7629,	8257,	7871,	8539,	8140,	8205,	8207,	8403,	8275,	8166,	12.09,	11.19,	14.31,	0.84,	9.79,	1.13,	1.94,	10.76,	5.23,	10.64,	14.64,	11.59,	13.50,	14.56,	1646,	1663
28,	8570,	8448,	8853,	8202,	7637,	8265,	7907,	8550,	8150,	8223,	8229,	8414,	8299,	8170,	12.09,	11.19,	14.31,	0.84,	9.79,	1.13,	1.94,	10.76,	5.23,	10.64,	14.64,	11.59,	13.50,	14.56,	1645,	1662
29,	8567,	8434,	8835,	8171,	7613,	8249,	7860,	8542,	8136,	8227,	8209,	8404,	8279,	8143,	12.09,	11.19,	14.31,	0.84,	9.79,	1.13,	1.94,	10.76,	5.23,	10.64,	14.64,	11.59,	13.50,	14.56,	1647,	1663
30,	8552,	8422,	8828,	8160,	7583,	8249,	7817,	8532,	8130,	8223,	8198,	8383,	8264,	8139,	12.09,	11.19,	14.31,	0.84,	9.79,	1.13,	1.94,	10.76,	5.23,	10.64,	14.64,	11.59,	13.50,	14.56,	1646,	1662
31,	8587,	8462,	8860,	8185,	7654,	8276,	7882,	8574,	8151,	8248,	8225,	8410,	8303,	8185,	12.09,	11.19,	14.31,	0.84,	9.79,	1.13,	1.94,	10.76,	5.23,	10.64,	14.64,	11.59,	13.50,	14.56,	1647,	1663
32,	8593,	8492,	8859,	8205,	7628,	8290,	7913,	8588,	8167,	8269,	8239,	8426,	8320,	8206,	12.09,	11.19,	14.31,	0.84,	9.79,	1.13,	1.94,	10.76,	5.23,	10.64,	14.64,	11.59,	13.50,	14.56,	1646,	1662
33,	8551,	8472,	8840,	8194,	7598,	8279,	7859,	8558,	8170,	8261,	8243,	8418,	8312,	8191,	12.09,	11.19,	14.31,	0.84,	9.79,	1.13,	1.94,	10.76,	5.23,	10.64,	14.64,	11.59,	13.50,	14.56,	1646,	1662
34,	8579,	8485,	8855,	8193,	7644,	8269,	7853,	8562,	8170,	8253,	8261,	8429,	8327,	8193,	12.09,	11.19,	14.31,	0.84,	9.79,	1.13,	1.94,	10.76,	5.23,	10.64,	14.64,	11.59,	13.50,	14.56,	1648,	1662
35,	8579,	8510,	8870,	8208,	7627,	8275,	7891,	8574,	8185,	8271,	8273,	8427,	8349,	8206,	12.09,	11.19,	14.31,	0.84,	9.79,	1.13,	1.94,	10.76,	5.23,	10.64,	14.64,	11.59,	13.50,	14.56,	1645,	1662
36,	8556,	8494,	8870,	8201,	7636,	8273,	7891,	8559,	8189,	8275,	8258,	8427,	8337,	8197,	12.09,	11.19,	14.31,	0.84,	9.79,	1.13,	1.94,	10.76,	5.23,	10.64,	14.64,	11.59,	13.50,	14.56,	1647,	1662
37,	8537,	8475,	8840,	8168,	7608,	8252,	7868,	8523,	8151,	8235,	8222,	8406,	8304,	8161,	12.09,	11.19,	14.31,	0.84,	9.79,	1.13,	1.94,	10.76,	5.23,	10.64,	14.64,	11.59,	13.50,	14.56,	1646,	1661
38,	8477,	8451,	8783,	8125,	7611,	8222,	7831,	8472,	8082,	8181,	8162,	8342,	8246,	8102,	12.09,	11.19,	14.31,	0.84,	9.79,	1.13,	1.94,	10.76,	5.23,	10.64,	14.64,	11.59,	13.50,	14.56,	1647,	1662
39,	8456,	8424,	8753,	8086,	7648,	8209,	7781,	8435,	8036,	8141,	8111,	8299,	8176,	8051,	12.09,	11.19,	14.31,	0.84,	9.79,	1.13,	1.94,	10.76,	5.23,	10.64,	14.64,	11.59,	13.50,	14.56,	1647,	1660
40,	8460,	8449,	8775,	8107,	7599,	8234,	7799,	8455,	8075,	8161,	8141,	8315,	8199,	8070,	12.09,	11.19,	14.31,	0.84,	9.79,	1.13,	1.94,	10.76,	5.23,	10.64,	14.64,	11.59,	13.50,	14.56,	1647,	1661
41,	8504,	8521,	8826,	8174,	7634,	8263,	7872,	8525,	8141,	8229,	8213,	8377,	8288,	8141,	12.09,	11.19,	14.31,	0.84,	9.79,	1.13,	1.94,	10.76,	5.23,	10.64,	14.64,	11.59,	13.50,	14.56,	1646,	1660
42,	8546,	8534,	8851,	8187,	7652,	8259,	7864,	8555,	8155,	8258,	8233,	8403,	8319,	8171,	12.09,	11.19,	14.31,	0.84,	9.79,	1.13,	1.94,	10.76,	5.23,	10.64,	14.64,	11.59,	13.50,	14.56,	1647,	1661
43,	8510,	8493,	8847,	8161,	7618,	8248,	7831,	8522,	8143,	8238,	8215,	8393,	8300,	8165,	12.09,	11.19,	14.31,	0.84,	9.79,	1.13,	1.94,	10.76,	5.23,	10.64,	14.64,	11.59,	13.50,	14.56,	1646,	1661
44,	8535,	8522,	8870,	8178,	7649,	8263,	7872,	8529,	8156,	8244,	8229,	8419,	8311,	8180,	12.09,	11.19,	14.31,	0.84,	9.79,	1.13,	1.94,	10.76,	5.23,	10.64,	14.64,	11.59,	13.50,	14.56,	1645,	1662
45,	8559,	8564,	8894,	8210,	7627,	8281,	7894,	8554,	8180,	8266,	8268,	8431,	8341,	8204,	12.09,	11.19,	14.31,	0.84,	9.79,	1.13,	1.94,	10.76,	5.23,	10.64,	14.64,	11.59,	13.50,	14.56,	1646,	1661
46,	8536,	8549,	8892,	8207,	7654,	8282,	7864,	8546,	8173,	8265,	8278,	8427,	8339,	8204,	12.09,	11.19,	14.31,	0.84,	9.79,	1.13,	1.94,	10.76,	5.23,	10.64,	14.64,	11.59,	13.50,	14.56,	1644,	1660
47,	8544,	8543,	8884,	8198,	7653,	8266,	7852,	8530,	8151,	8265,	8258,	8432,	8319,	8191,	12.09,	11.19,	14.31,	0.84,	9.79,	1.13,	1.94,	10.76,	5.23,	10.64,	14.64,	11.59,	13.50,	14.56,	1645,	1659
48,	8521,	8554,	8879,	8215,	7602,	8263,	7861,	8517,	8145,	8260,	8241,	8411,	8310,	8183,	12.09,	11.19,	14.31,	0.84,	9.79,	1.13,	1.94,	10.76,	5.23,	10.64,	14.64,	11.59,	13.50,	14.56,	1645,	1658
49,	8525,	8554,	8886,	8223,	7665,	8285,	7881,	8525,	8158,	8251,	8241,	8411,	8308,	8186,	12.09,	11.19,	14.31,	0.84,	9.79,	1.13,	1.94,	10.76,	5.23,	10.64,	14.64,	11.59,	13.50,	14.56,	1645,	1659
50,	8518,	8527,	8874,	8186,	7656,	8286,	7875,	8507,	8157,	8253,	8235,	8417,	8300,	8187,	12.09,	11.19,	14.31,	0.84,	9.79,	1.13,	1.94,	10.76,	5.23,	10.64,	14.64,	11.59,	13.50,	14.56,	1645,	1658
51,	8492,	8525,	8873,	8165,	7637,	8265,	7851,	8485,	8140,	8255,	8224,	8416,	8302,	8183,	12.09,	11.19,	14.31,	0.84,	9.79,	1.13,	1.94,	10.76,	5.23,	10.64,	14.64,	11.59,	13.50,	14.56,	1644,	1660
52,	8535,	8565,	8899,	8199,	7664,	8272,	7864,	8524,	8141,	8253,	8244,	8432,	8321,	8194,	12.09,	11.19,	14.31,	0.84,	9.79,	1.13,	1.94,	10.76,	5.23,	10.64,	14.64,	11.59,	13.50,	14.56,	1645,	1660
53,	8516,	8559,	8878,	8211,	7630,	8283,	7874,	8538,	8159,	8261,	8262,	8415,	8321,	8198,	12.09,	11.19,	14.31,	0.84,	9.79,	1.13,	1.94,	10.76,	5.23,	10.64,	14.64,	11.59,	13.50,	14.56,	1645,	1662
54,	8482,	8537,	8855,	8186,	7656,	8267,	7845,	8509,	8157,	8270,	8240,	8400,	8306,	8182,	12.09,	11.19,	14.31,	0.84,	9.79,	1.13,	1.94,	10.76,	5.23,	10.64,	14.64,	11.59,	13.50,	14.56,	1645,	1661
55,	8508,	8552,	8878,	8187,	7633,	8263,	7833,	8506,	8149,	8266,	8233,	8406,	8313,	8181,	12.09,	11.19,	14.31,	0.84,	9.79,	1.13,	1.94,	10.76,	5.23,	10.64,	14.64,	11.59,	13.50,	14.56,	1644,	1662
56,	8499,	8554,	8890,	8199,	7614,	8285,	7858,	8519,	8157,	8263,	8259,	8411,	8333,	8196,	12.09,	11.19,	14.31,	0.84,	9.79,	1.13,	1.94,	10.76,	5.23,	10.64,	14.64,	11.59,	13.50,	14.56,	1646,	1660
57,	8494,	8543,	8872,	8181,	7678,	8285,	7872,	8522,	8146,	8259,	8246,	8423,	8321,	8190,	12.09,	11.19,	14.31,	0.84,	9.79,	1.13,	1.94,	10.76,	5.23,	10.64,	14.64,	11.59,	13.50,	14.56,	1645,	1660
58,	8472,	8545,	8856,	8175,	7639,	8268,	7851,	8509,	8135,	8255,	8213,	8404,	8298,	8163,	12.09,	11.19,	14.31,	0.84,	9.79,	1.13,	1.94,	10.76,	5.23,	10.64,	14.64,	11.59,	13.50,	14.56,	1647,	1661
59,	8461,	8559,	8865,	8197,	7636,	8273,	7841,	8499,	8140,	8252,	8229,	8393,	8299,	8157,	12.09,	11.19,	14.31,	0.84,	9.79,	1.13,	1.94,	10.76,	5.23,	10.64,	14.64,	11.59,	13.50,	14.56,	1646,	1660
60,	8479,	8560,	8859,	8186,	7662,	8273,	7836,	8474,	8127,	8229,	8242,	8395,	8291,	8160,	12.09,	11.19,	14.31,	0.84,	9.79,	1.13,	1.94,	10.76,	5.23,	10.64,	14.64,	11.59,	13.50,	14.56,	1646,	1661
61,	8443,	8553,	8839,	8161,	7641,	8251,	7817,	8455,	8113,	8221,	8224,	8381,	8278,	8150,	12.09,	11.19,	14.31,	0.84,	9.79,	1.13,	1.94,	10.76,	5.23,	10.64,	14.64,	11.59,	13.50,	14.56,	1646,	1662
62,	8450,	8575,	8846,	8174,	7660,	8256,	7827,	8478,	8115,	8245,	8223,	8394,	8283,	8151,	12.09,	11.19,	14.31,	0.84,	9.79,	1.13,	1.94,	10.76,	5.23,	10.64,	14.64,	11.59,	13.50,	14.56,	1646,	1662
63,	8465,	8586,	8845,	8179,	7623,	8283,	7864,	8483,	8128,	8237,	8244,	8392,	8295,	8169,	12.09,	11.19,	14.31,	0.84,	9.79,	1.13,	1.94,	10.76,	5.23,	10.64,	14.64,	11.59,	13.50,	14.56,	1647,	1662
64,	8445,	8593,	8839,	8176,	7645,	8291,	7877,	8488,	8138,	8226,	8254,	8386,	8303,	8189,	12.09,	11.19,	14.31,	0.84,	9.79,	1.13,	1.94,	10.76,	5.23,	10.64,	14.64,	11.59,	13.50,	14.56,	1645,	1662
65,	8466,	8626,	8846,	8196,	7689,	8289,	7861,	8528,	8145,	8266,	8252,	8400,	8308,	8189,	12.09,	11.19,	14.31,	0.84,	9.79,	1.13,	1.94,	10.76,	5.23,	10.64,	14.64,	11.59,	13.50,	14.56,	1645,	1662
66,	8439,	8625,	8839,	8197,	7630,	8288,	7844,	8514,	8145,	8275,	8243,	8376,	8300,	8175,	12.09,	11.19,	14.31,	0.84,	9.79,	1.13,	1.94,	10.76,	5.23,	10.64,	14.64,	11.59,	13.50,	14.56,	1644,	1660
67,	8426,	8613,	8839,	8179,	7653,	8286,	7855,	8486,	8138,	8241,	8237,	8366,	8299,	8178,	12.09,	11.19,	14.31,	0.84,	9.79,	1.13,	1.94,	10.76,	5.23,	10.64,	14.64,	11.59,	13.50,	14.56,	1646,	1660
68,	8454,	8635,	8845,	8187,	7669,	8284,	7862,	8504,	8145,	8243,	8257,	8387,	8319,	8195,	12.09,	11.19,	14.31,	0.84,	9.79,	1.13,	1.94,	10.76,	5.23,	10.64,	14.64,	11.59,	13.50,	14.56,	1644,	1658
69,	8430,	8649,	8828,	8196,	7661,	8294,	7854,	8510,	8157,	8264,	8279,	8389,	8329,	8203,	12.09,	11.19,	14.31,	0.84,	9.79,	1.13,	1.94,	10.76,	5.23,	10.64,	14.64,	11.59,	13.50,	14.56,	1645,	1659
70,	8441,	8665,	8853,	8197,	7675,	8307,	7862,	8514,	8160,	8275,	8282,	8391,	8324,	8212,	12.09,	11.19,	14.31,	0.84,	9.79,	1.13,	1.94,	10.76,	5.23,	10.64,	14.64,	11.59,	13.50,	14.56,	1645,	1659
71,	8461,	8687,	8900,	8216,	7646,	8321,	7876,	8547,	8176,	8287,	8278,	8397,	8329,	8229,	12.09,	11.19,	14.31,	0.84,	9.79,	1.13,	1.94,	10.76,	5.23,	10.64,	14.64,	11.59,	13.50,	14.56,	1645,	1661
72,	8461,	8699,	8891,	8229,	7691,	8332,	7885,	8563,	8188,	8288,	8261,	8412,	8340,	8230,	12.09,	11.19,	14.31,	0.84,	9.79,	1.13,	1.94,	10.76,	5.23,	10.64,	14.64,	11.59,	13.50,	14.56,	1646,	1661
73,	8457,	8695,	8858,	8209,	7673,	8326,	7885,	8534,	8185,	8282,	8274,	8411,	8353,	8222,	12.09,	11.19,	14.31,	0.84,	9.79,	1.13,	1.94,	10.76,	5.23,	10.64,	14.64,	11.59,	13.50,	14.56,	1645,	1662
74,	8432,	8685,	8866,	8200,	7629,	8331,	7889,	8527,	8188,	8287,	8318,	8396,	8361,	8236,	12.09,	11.19,	14.31,	0.84,	9.79,	1.13,	1.94,	10.76,	5.23,	10.64,	14.64,	11.59,	13.50,	14.56,	1646,	1661
75,	8451,	8701,	8887,	8225,	7691,	8344,	7899,	8559,	8195,	8290,	8317,	8405,	8354,	8248,	12.09,	11.19,	14.31,	0.84,	9.79,	1.13,	1.94,	10.76,	5.23,	10.64,	14.64,	11.59,	13.50,	14.56,	1645,	1662
76,	8441,	8707,	8875,	8229,	7669,	8336,	7897,	8555,	8196,	8286,	8291,	8401,	8355,	8241,	12.09,	11.19,	14.31,	0.84,	9.79,	1.13,	1.94,	10.76,	5.23,	10.64,	14.64,	11.59,	13.50,	14.56,	1646,	1663
77,	8432,	8709,	8881,	8220,	7665,	8329,	7900,	8547,	8200,	8301,	8301,	8400,	8363,	8247,	12.09,	11.19,	14.31,	0.84,	9.79,	1.13,	1.94,	10.76,	5.23,	10.64,	14.64,	11.59,	13.50,	14.56,	1646,	1663
78,	8462,	8723,	8894,	8225,	7677,	8329,	7892,	8552,	8201,	8310,	8300,	8407,	8349,	8247,	12.09,	11.19,	14.31,	0.84,	9.79,	1.13,	1.94,	10.76,	5.23,	10.64,	14.64,	11.59,	13.50,	14.56,	1647,	1662
79,	8430,	8717,	8873,	8226,	7657,	8327,	7883,	8552,	8205,	8311,	8279,	8398,	8346,	8235,	12.09,	11.19,	14.31,	0.84,	9.79,	1.13,	1.94,	10.76,	5.23,	10.64,	14.64,	11.59,	13.50,	14.56,	1646,	1660
80,	8430,	8719,	8868,	8221,	7693,	8324,	7904,	8573,	8211,	8320,	8296,	8407,	8369,	8245,	12.09,	11.19,	14.31,	0.84,	9.79,	1.13,	1.94,	10.76,	5.23,	10.64,	14.64,	11.59,	13.50,	14.56,	1647,	1657
81,	8426,	8714,	8864,	8212,	7646,	8316,	7898,	8548,	8191,	8288,	8305,	8393,	8360,	8240,	12.09,	11.19,	14.31,	0.84,	9.79,	1.13,	1.94,	10.76,	5.23,	10.64,	14.64,	11.59,	13.50,	14.56,	1647,	1659
82,	8389,	8698,	8854,	8207,	7643,	8305,	7854,	8487,	8166,	8239,	8282,	8372,	8333,	8213,	12.09,	11.19,	14.31,	0.84,	9.79,	1.13,	1.94,	10.76,	5.23,	10.64,	14.64,	11.59,	13.50,	14.56,	1648,	1659
83,	8429,	8725,	8877,	8222,	7700,	8315,	7852,	8502,	8174,	8257,	8288,	8395,	8343,	8221,	12.09,	11.19,	14.31,	0.84,	9.79,	1.13,	1.94,	10.76,	5.23,	10.64,	14.64,	11.59,	13.50,	14.56,	1647,	1660
84,	8434,	8752,	8894,	8239,	7659,	8326,	7870,	8541,	8191,	8294,	8312,	8402,	8364,	8236,	12.09,	11.19,	14.31,	0.84,	9.79,	1.13,	1.94,	10.76,	5.23,	10.64,	14.64,	11.59,	13.50,	14.56,	1647,	1661
85,	8407,	8739,	8886,	8223,	7668,	8312,	7857,	8527,	8183,	8284,	8298,	8396,	8350,	8222,	12.09,	11.19,	14.31,	0.84,	9.79,	1.13,	1.94,	10.76,	5.23,	10.64,	14.64,	11.59,	13.50,	14.56,	1646,	1661
86,	8399,	8719,	8871,	8199,	7672,	8307,	7860,	8509,	8177,	8276,	8278,	8390,	8334,	8217,	12.09,	11.19,	14.31,	0.84,	9.79,	1.13,	1.94,	10.76,	5.23,	10.64,	14.64,	11.59,	13.50,	14.56,	1648,	1660
87,	8371,	8720,	8849,	8211,	7667,	8315,	7885,	8529,	8186,	8287,	8290,	8381,	8344,	8227,	12.09,	11.19,	14.31,	0.84,	9.79,	1.13,	1.94,	10.76,	5.23,	10.64,	14.64,	11.59,	13.50,	14.56,	1646,	1660
88,	8382,	8733,	8847,	8220,	7678,	8314,	7876,	8549,	8187,	8292,	8295,	8385,	8355,	8230,	12.09,	11.19,	14.31,	0.84,	9.79,	1.13,	1.94,	10.76,	5.23,	10.64,	14.64,	11.59,	13.50,	14.56,	1647,	1660
89,	8376,	8722,	8855,	8200,	7628,	8300,	7859,	8528,	8179,	8286,	8290,	8368,	8355,	8226,	12.09,	11.19,	14.31,	0.84,	9.79,	1.13,	1.94,	10.76,	5.23,	10.64,	14.64,	11.59,	13.50,	14.56,	1646,	1659
90,	8375,	8726,	8851,	8189,	7668,	8295,	7868,	8500,	8164,	8259,	8282,	8353,	8341,	8217,	12.09,	11.19,	14.31,	0.84,	9.79,	1.13,	1.94,	10.76,	5.23,	10.64,	14.64,	11.59,	13.50,	14.56,	1646,	1661
91,	8407,	8754,	8850,	8200,	7687,	8307,	7872,	8493,	8161,	8238,	8275,	8362,	8338,	8212,	12.09,	11.19,	14.31,	0.84,	9.79,	1.13,	1.94,	10.76,	5.23,	10.64,	14.64,	11.59,	13.50,	14.56,	1647,	1660
92,	8386,	8748,	8866,	8214,	7649,	8316,	7874,	8512,	8182,	8262,	8291,	8370,	8356,	8224,	12.09,	11.19,	14.31,	0.84,	9.79,	1.13,	1.94,	10.76,	5.23,	10.64,	14.64,	11.59,	13.50,	14.56,	1646,	1660
93,	8382,	8733,	8876,	8215,	7682,	8310,	7866,	8543,	8186,	8289,	8285,	8376,	8341,	8225,	12.09,	11.19,	14.31,	0.84,	9.79,	1.13,	1.94,	10.76,	5.23,	10.64,	14.64,	11.59,	13.50,	14.56,	1646,	1659
94,	8376,	8727,	8857,	8201,	7662,	8303,	7838,	8524,	8179,	8276,	8257,	8361,	8312,	8205,	12.09,	11.19,	14.31,	0.84,	9.79,	1.13,	1.94,	10.76,	5.23,	10.64,	14.64,	11.59,	13.50,	14.56,	1646,	1659
95,	8366,	8739,	8859,	8203,	7677,	8311,	7843,	8507,	8189,	8262,	8268,	8366,	8329,	8209,	12.09,	11.19,	14.31,	0.84,	9.79,	1.13,	1.94,	10.76,	5.23,	10.64,	14.64,	11.59,	13.50,	14.56,	1646,	1660
96,	8391,	8757,	8874,	8212,	7686,	8315,	7859,	8527,	8195,	8269,	8307,	8378,	8357,	8223,	12.09,	11.19,	14.31,	0.84,	9.79,	1.13,	1.94,	10.76,	5.23,	10.64,	14.64,	11.59,	13.50,	14.56,	1645,	1661
97,	8363,	8756,	8857,	8211,	7639,	8310,	7846,	8513,	8189,	8282,	8312,	8357,	8358,	8223,	12.09,	11.19,	14.31,	0.84,	9.79,	1.13,	1.94,	10.76,	5.23,	10.64,	14.64,	11.59,	13.50,	14.56,	1646,	1662
98,	8369,	8777,	8858,	8217,	7691,	8312,	7860,	8510,	8181,	8281,	8296,	8374,	8355,	8234,	12.09,	11.19,	14.31,	0.84,	9.79,	1.13,	1.94,	10.76,	5.23,	10.64,	14.64,	11.59,	13.50,	14.56,	1645,	1661
99,	8386,	8779,	8869,	8214,	7676,	8311,	7874,	8523,	8182,	8264,	8287,	8372,	8352,	8235,	12.09,	11.19,	14.31,	0.84,	9.79,	1.13,	1.94,	10.76,	5.23,	10.64,	14.64,	11.59,	13.50,	14.56,	1646,	1660
100,	8353,	8743,	8863,	8196,	7649,	8303,	7863,	8516,	8184,	8266,	8277,	8346,	8342,	8222,	12.09,	11.19,	14.31,	0.84,	9.79,	1.13,	1.94,	10.76,	5.23,	10.64,	14.64,	11.59,	13.50,	14.56,	1645,	1659
101,	8379,	8761,	8876,	8211,	7689,	8307,	7887,	8538,	8182,	8288,	8293,	8369,	8353,	8238,	12.09,	11.19,	14.31,	0.84,	9.79,	1.13,	1.94,	10.76,	5.23,	10.64,	14.64,	11.59,	13.50,	14.56,	1645,	1660
102,	8384,	8799,	8896,	8247,	7666,	8321,	7903,	8557,	8196,	8296,	8332,	8383,	8372,	8263,	12.09,	11.19,	14.31,	0.84,	9.79,	1.13,	1.94,	10.76,	5.23,	10.64,	14.64,	11.59,	13.50,	14.56,	1645,	1660
103,	8376,	8790,	8905,	8248,	7682,	8326,	7873,	8547,	8201,	8286,	8330,	8381,	8371,	8261,	12.09,	11.19,	14.31,	0.84,	9.79,	1.13,	1.94,	10.76,	5.23,	10.64,	14.64,	11.59,	13.50,	14.56,	1644,	1661
104,	8375,	8752,	8883,	8204,	7667,	8316,	7831,	8521,	8181,	8268,	8288,	8364,	8351,	8236,	12.09,	11.19,	14.31,	0.84,	9.79,	1.13,	1.94,	10.76,	5.23,	10.64,	14.64,	11.59,	13.50,	14.56,	1646,	1660
105,	8327,	8737,	8848,	8187,	7660,	8300,	7824,	8507,	8167,	8254,	8271,	8336,	8332,	8217,	12.09,	11.19,	14.31,	0.84,	9.79,	1.13,	1.94,	10.76,	5.23,	10.64,	14.64,	11.59,	13.50,	14.56,	1644,	1659
106,	8354,	8774,	8869,	8234,	7705,	8314,	7887,	8548,	8188,	8270,	8289,	8353,	8346,	8224,	12.09,	11.19,	14.31,	0.84,	9.79,	1.13,	1.94,	10.76,	5.23,	10.64,	14.64,	11.59,	13.50,	14.56,	1645,	1658
107,	8386,	8797,	8916,	8255,	7648,	8340,	7924,	8571,	8216,	8293,	8302,	8370,	8369,	8244,	12.09,	11.19,	14.31,	0.84,	9.79,	1.13,	1.94,	10.76,	5.23,	10.64,	14.64,	11.59,	13.50,	14.56,	1645,	1657
108,	8348,	8780,	8897,	8216,	7659,	8324,	7870,	8532,	8203,	8281,	8295,	8360,	8359,	8238,	12.09,	11.19,	14.31,	0.84,	9.79,	1.13,	1.94,	10.76,	5.23,	10.64,	14.64,	11.59,	13.50,	14.56,	1645,	1659
109,	8332,	8774,	8846,	8212,	7695,	8307,	7835,	8509,	8183,	8262,	8286,	8346,	8331,	8220,	12.09,	11.19,	14.31,	0.84,	9.79,	1.13,	1.94,	10.76,	5.23,	10.64,	14.64,	11.59,	13.50,	14.56,	1644,	1659
110,	8342,	8779,	8866,	8247,	7661,	8324,	7879,	8536,	8201,	8272,	8302,	8350,	8347,	8241,	12.09,	11.19,	14.31,	0.84,	9.79,	1.13,	1.94,	10.76,	5.23,	10.64,	14.64,	11.59,	13.50,	14.56,	1645,	1661
111,	8378,	8787,	8917,	8256,	7689,	8329,	7903,	8560,	8204,	8285,	8318,	8377,	8379,	8268,	12.09,	11.19,	14.31,	0.84,	9.79,	1.13,	1.94,	10.76,	5.23,	10.64,	14.64,	11.59,	13.50,	14.56,	1643,	1660
112,	8367,	8787,	8904,	8252,	7684,	8323,	7876,	8551,	8191,	8283,	8317,	8375,	8380,	8260,	12.09,	11.19,	14.31,	0.84,	9.79,	1.13,	1.94,	10.76,	5.23,	10.64,	14.64,	11.59,	13.50,	14.56,	1642,	1661
113,	8339,	8788,	8883,	8252,	7693,	8337,	7888,	8561,	8215,	8289,	8322,	8368,	8379,	8258,	12.09,	11.19,	14.31,	0.84,	9.79,	1.13,	1.94,	10.76,	5.23,	10.64,	14.64,	11.59,	13.50,	14.56,	1643,	1659
114,	8380,	8815,	8916,	8253,	7682,	8351,	7931,	8583,	8236,	8302,	8328,	8390,	8388,	8278,	12.09,	11.19,	14.31,	0.84,	9.79,	1.13,	1.94,	10.76,	5.23,	10.64,	14.64,	11.59,	13.50,	14.56,	1642,	1659
115,	8370,	8818,	8939,	8261,	7627,	8343,	7919,	8576,	8226,	8308,	8327,	8391,	8380,	8281,	12.09,	11.19,	14.31,	0.84,	9.79,	1.13,	1.94,	10.76,	5.23,	10.64,	14.64,	11.59,	13.50,	14.56,	1643,	1658
116,	8369,	8816,	8933,	8274,	7698,	8341,	7901,	8584,	8226,	8311,	8325,	8396,	8368,	8275,	12.09,	11.19,	14.31,	0.84,	9.79,	1.13,	1.94,	10.76,	5.23,	10.64,	14.64,	11.59,	13.50,	14.56,	1641,	1656
117,	8391,	8832,	8920,	8286,	7702,	8359,	7927,	8596,	8242,	8321,	8339,	8405,	8397,	8286,	12.09,	11.19,	14.31,	0.84,	9.79,	1.13,	1.94,	10.76,	5.23,	10.64,	14.64,	11.59,	13.50,	14.56,	1642,	1656
118,	8361,	8818,	8925,	8291,	7658,	8370,	7927,	8580,	8238,	8319,	8359,	8400,	8422,	8288,	12.09,	11.19,	14.31,	0.84,	9.79,	1.13,	1.94,	10.76,	5.23,	10.64,	14.64,	11.59,	13.50,	14.56,	1642,	1656
119,	8371,	8800,	8945,	8277,	7697,	8352,	7874,	8573,	8219,	8306,	8358,	8411,	8398,	8277,	12.09,	11.19,	14.31,	0.84,	9.79,	1.13,	1.94,	10.76,	5.23,	10.64,	14.64,	11.59,	13.50,	14.56,	1641,	1657
120,	8363,	8802,	8929,	8262,	7680,	8329,	7844,	8562,	8219,	8295,	8359,	8404,	8392,	8274,	12.09,	11.19,	14.31,	0.84,	9.79,	1.13,	1.94,	10.76,	5.23,	10.64,	14.64,	11.59,	13.50,	14.56,	1641,	1657
121,	8363,	8830,	8939,	8283,	7694,	8345,	7895,	8572,	8241,	8310,	8382,	8422,	8424,	8306,	12.09,	11.19,	14.31,	0.84,	9.79,	1.13,	1.94,	10.76,	5.23,	10.64,	14.64,	11.59,	13.50,	14.56,	1641,	1658
122,	8413,	8855,	8984,	8305,	7684,	8372,	7948,	8612,	8266,	8347,	8410,	8465,	8447,	8351,	12.09,	11.19,	14.31,	0.84,	9.79,	1.13,	1.94,	10.76,	5.23,	10.64,	14.64,	11.59,	13.50,	14.56,	1641,	1658
123,	8393,	8841,	8979,	8303,	7668,	8375,	7943,	8621,	8272,	8368,	8413,	8456,	8451,	8355,	12.09,	11.19,	14.31,	0.84,	9.79,	1.13,	1.94,	10.76,	5.23,	10.64,	14.64,	11.59,	13.50,	14.56,	1641,	1658
124,	8383,	8831,	8960,	8301,	7723,	8370,	7935,	8624,	8267,	8369,	8397,	8438,	8451,	8337,	12.09,	11.19,	14.31,	0.84,	9.79,	1.13,	1.94,	10.76,	5.23,	10.64,	14.64,	11.59,	13.50,	14.56,	1642,	1656
125,	8389,	8842,	8958,	8314,	7679,	8373,	7954,	8645,	8284,	8371,	8393,	8436,	8446,	8345,	12.09,	11.19,	14.31,	0.84,	9.79,	1.13,	1.94,	10.76,	5.23,	10.64,	14.64,	11.59,	13.50,	14.56,	1640,	1657
126,	8383,	8854,	8962,	8321,	7671,	8381,	7963,	8639,	8289,	8362,	8395,	8444,	8439,	8347,	12.09,	11.19,	14.31,	0.84,	9.79,	1.13,	1.94,	10.76,	5.23,	10.64,	14.64,	11.59,	13.50,	14.56,	1643,	1657
127,	8379,	8837,	8946,	8282,	7697,	8374,	7921,	8576,	8228,	8307,	8363,	8417,	8409,	8297,	12.09,	11.19,	14.31,	0.84,	9.79,	1.13,	1.94,	10.76,	5.23,	10.64,	14.64,	11.59,	13.50,	14.56,	1643,	1657
0,	8308,	8766,	8872,	8226,	7687,	8371,	7900,	8550,	8186,	8241,	8270,	8339,	8307,	8228,	12.09,	11.19,	14.31,	0.84,	9.79,	1.13,	1.94,	10.76,	5.23,	10.64,	14.64,	11.59,	13.50,	14.56,	1643,	1656
1,	8373,	8841,	8936,	8282,	7672,	8407,	7939,	8620,	8274,	8328,	8331,	8414,	8378,	8292,	12.09,	11.19,	14.31,	0.84,	9.79,	1.13,	1.94,	10.76,	5.23,	10.64,	14.64,	11.59,	13.50,	14.56,	1643,	1657
2,	8393,	8878,	9004,	8320,	7687,	8428,	7946,	8641,	8313,	8376,	8421,	8466,	8461,	8359,	12.09,	11.19,	14.31,	0.84,	9.79,	1.13,	1.94,	10.76,	5.23,	10.64,	14.64,	11.59,	13.50,	14.56,	1644,	1656
3,	8410,	8870,	9009,	8328,	7720,	8418,	7965,	8645,	8293,	8373,	8438,	8474,	8475,	8373,	12.09,	11.19,	14.31,	0.84,	9.79,	1.13,	1.94,	10.76,	5.23,	10.64,	14.64,	11.59,	13.50,	14.56,	1643,	1658
4,	8389,	8868,	8989,	8339,	7658,	8411,	7981,	8644,	8302,	8386,	8414,	8459,	8466,	8356,	12.09,	11.19,	14.31,	0.84,	9.79,	1.13,	1.94,	10.76,	5.23,	10.64,	14.64,	11.59,	13.50,	14.56,	1643,	1659
5,	8363,	8871,	8979,	8337,	7686,	8415,	7964,	8638,	8312,	8381,	8402,	8455,	8454,	8346,	12.09,	11.19,	14.31,	0.84,	9.79,	1.13,	1.94,	10.76,	5.23,	10.64,	14.64,	11.59,	13.50,	14.56,	1642,	1661
6,	8361,	8865,	8969,	8322,	7699,	8415,	7959,	8632,	8299,	8350,	8394,	8442,	8435,	8342,	12.09,	11.19,	14.31,	0.84,	9.79,	1.13,	1.94,	10.76,	5.23,	10.64,	14.64,	11.59,	13.50,	14.56,	1642,	1659
7,	8348,	8857,	8972,	8319,	7672,	8416,	7974,	8632,	8306,	8356,	8398,	8432,	8440,	8343,	12.09,	11.19,	14.31,	0.84,	9.79,	1.13,	1.94,	10.76,	5.23,	10.64,	14.64,	11.59,	13.50,	14.56,	1643,	1657
8,	8369,	8864,	8986,	8324,	7709,	8420,	7985,	8643,	8306,	8370,	8410,	8449,	8452,	8342,	12.09,	11.19,	14.31,	0.84,	9.79,	1.13,	1.94,	10.76,	5.23,	10.64,	14.64,	11.59,	13.50,	14.56,	1643,	1656
9,	8346,	8861,	8970,	8321,	7686,	8422,	7974,	8635,	8288,	8359,	8402,	8442,	8446,	8337,	12.09,	11.19,	14.31,	0.84,	9.79,	1.13,	1.94,	10.76,	5.23,	10.64,	14.64,	11.59,	13.50,	14.56,	1643,	1658
10,	8340,	8855,	8978,	8315,	7696,	8417,	7941,	8630,	8289,	8362,	8397,	8445,	8445,	8341,	12.09,	11.19,	14.31,	0.84,	9.79,	1.13,	1.94,	10.76,	5.23,	10.64,	14.64,	11.59,	13.50,	14.56,	1642,	1659
11,	8396,	8865,	9017,	8317,	7695,	8408,	7925,	8638,	8305,	8378,	8418,	8467,	8458,	8349,	12.09,	11.19,	14.31,	0.84,	9.79,	1.13,	1.94,	10.76,	5.23,	10.64,	14.64,	11.59,	13.50,	14.56,	1642,	1661
12,	8384,	8885,	9017,	8340,	7661,	8410,	7947,	8639,	8307,	8377,	8432,	8462,	8472,	8364,	12.09,	11.19,	14.31,	0.84,	9.79,	1.13,	1.94,	10.76,	5.23,	10.64,	14.64,	11.59,	13.50,	14.56,	1642,	1661
13,	8383,	8898,	9003,	8361,	7713,	8421,	7963,	8653,	8293,	8380,	8424,	8468,	8476,	8376,	12.09,	11.19,	14.31,	0.84,	9.79,	1.13,	1.94,	10.76,	5.23,	10.64,	14.64,	11.59,	13.50,	14.56,	1642,	1662
14,	8375,	8871,	8987,	8344,	7696,	8430,	7956,	8653,	8291,	8382,	8413,	8457,	8464,	8361,	12.09,	11.19,	14.31,	0.84,	9.79,	1.13,	1.94,	10.76,	5.23,	10.64,	14.64,	11.59,	13.50,	14.56,	1643,	1660
15,	8343,	8856,	8990,	8332,	7688,	8429,	7958,	8649,	8306,	8380,	8421,	8450,	8463,	8357,	12.09,	11.19,	14.31,	0.84,	9.79,	1.13,	1.94,	10.76,	5.23,	10.64,	14.64,	11.59,	13.50,	14.56,	1642,	1660
16,	8372,	8868,	9004,	8333,	7706,	8423,	7967,	8657,	8308,	8376,	8421,	8463,	8476,	8367,	12.09,	11.19,	14.31,	0.84,	9.79,	1.13,	1.94,	10.76,	5.23,	10.64,	14.64,	11.59,	13.50,	14.56,	1644,	1660
17,	8359,	8861,	8989,	8312,	7681,	8428,	7975,	8641,	8293,	8356,	8404,	8440,	8463,	8357,	12.09,	11.19,	14.31,	0.84,	9.79,	1.13,	1.94,	10.76,	5.23,	10.64,	14.64,	11.59,	13.50,	14.56,	1643,	1661
18,	8351,	8867,	8989,	8313,	7720,	8437,	7985,	8629,	8295,	8358,	8397,	8437,	8436,	8354,	12.09,	11.19,	14.31,	0.84,	9.79,	1.13,	1.94,	10.76,	5.23,	10.64,	14.64,	11.59,	13.50,	14.56,	1643,	1662
19,	8363,	8879,	9002,	8334,	7687,	8424,	7955,	8621,	8301,	8366,	8412,	8457,	8438,	8365,	12.09,	11.19,	14.31,	0.84,	9.79,	1.13,	1.94,	10.76,	5.23,	10.64,	14.64,	11.59,	13.50,	14.56,	1644,	1660
20,	8340,	8876,	8995,	8337,	7668,	8411,	7941,	8627,	8295,	8366,	8435,	8464,	8466,	8370,	12.09,	11.19,	14.31,	0.84,	9.79,	1.13,	1.94,	10.76,	5.23,	10.64,	14.64,	11.59,	13.50,	14.56,	1644,	1661
21,	8349,	8886,	8977,	8322,	7726,	8414,	7959,	8656,	8295,	8371,	8430,	8454,	8471,	8366,	12.09,	11.19,	14.31,	0.84,	9.79,	1.13,	1.94,	10.76,	5.23,	10.64,	14.64,	11.59,	13.50,	14.56,	1644,	1660
22,	8330,	8876,	8960,	8305,	7687,	8416,	7947,	8649,	8303,	8369,	8406,	8416,	8451,	8351,	12.09,	11.19,	14.31,	0.84,	9.79,	1.13,	1.94,	10.76,	5.23,	10.64,	14.64,	11.59,	13.50,	14.56,	1644,	1660
23,	8324,	8872,	8970,	8295,	7699,	8428,	7952,	8630,	8300,	8361,	8392,	8413,	8445,	8341,	12.09,	11.19,	14.31,	0.84,	9.79,	1.13,	1.94,	10.76,	5.23,	10.64,	14.64,	11.59,	13.50,	14.56,	1644,	1660
24,	8350,	8898,	8983,	8311,	7717,	8431,	7968,	8628,	8282,	8360,	8393,	8427,	8443,	8346,	12.09,	11.19,	14.31,	0.84,	9.79,	1.13,	1.94,	10.76,	5.23,	10.64,	14.64,	11.59,	13.50,	14.56,	1644,	1661
25,	8312,	8901,	8960,	8335,	7698,	8407,	7950,	8627,	8271,	8364,	8400,	8410,	8428,	8351,	12.09,	11.19,	14.31,	0.84,	9.79,	1.13,	1.94,	10.76,	5.23,	10.64,	14.64,	11.59,	13.50,	14.56,	1645,	1661
26,	8324,	8909,	8967,	8329,	7719,	8407,	7944,	8641,	8282,	8362,	8413,	8420,	8428,	8357,	12.09,	11.19,	14.31,	0.84,	9.79,	1.13,	1.94,	10.76,	5.23,	10.64,	14.64,	11.59,	13.50,	14.56,	1643,	1661
27,	8353,	8915,	8998,	8330,	7683,	8431,	7965,	8654,	8296,	8367,	8431,	8436,	8460,	8373,	12.09,	11.19,	14.31,	0.84,	9.79,	1.13,	1.94,	10.76,	5.23,	10.64,	14.64,	11.59,	13.50,	14.56,	1645,	1661
28,	8328,	8902,	8985,	8346,	7705,	8437,	7980,	8645,	8283,	8372,	8422,	8427,	8470,	8375,	12.09,	11.19,	14.31,	0.84,	9.79,	1.13,	1.94,	10.76,	5.23,	10.64,	14.64,	11.59,	13.50,	14.56,	1643,	1660
29,	8323,	8900,	8956,	8341,	7721,	8430,	7980,	8635,	8278,	8370,	8402,	8412,	8449,	8362,	12.09,	11.19,	14.31,	0.84,	9.79,	1.13,	1.94,	10.76,	5.23,	10.64,	14.64,	11.59,	13.50,	14.56,	1644,	1659
30,	8303,	8893,	8945,	8319,	7678,	8431,	7970,	8634,	8308,	8378,	8401,	8395,	8438,	8353,	12.09,	11.19,	14.31,	0.84,	9.79,	1.13,	1.94,	10.76,	5.23,	10.64,	14.64,	11.59,	13.50,	14.56,	1644,	1659
31,	8316,	8908,	8959,	8331,	7724,	8429,	7958,	8646,	8314,	8383,	8408,	8408,	8445,	8359,	12.09,	11.19,	14.31,	0.84,	9.79,	1.13,	1.94,	10.76,	5.23,	10.64,	14.64,	11.59,	13.50,	14.56,	1644,	1660
32,	8339,	8935,	8977,	8367,	7718,	8425,	7962,	8648,	8308,	8378,	8419,	8418,	8461,	8376,	12.09,	11.19,	14.31,	0.84,	9.79,	1.13,	1.94,	10.76,	5.23,	10.64,	14.64,	11.59,	13.50,	14.56,	1645,	1659
33,	8339,	8937,	9000,	8375,	7709,	8438,	7976,	8658,	8326,	8390,	8439,	8423,	8473,	8391,	12.09,	11.19,	14.31,	0.84,	9.79,	1.13,	1.94,	10.76,	5.23,	10.64,	14.64,	11.59,	13.50,	14.56,	1644,	1660
34,	8374,	8939,	9027,	8373,	7723,	8451,	7990,	8686,	8336,	8420,	8445,	8440,	8480,	8401,	12.09,	11.19,	14.31,	0.84,	9.79,	1.13,	1.94,	10.76,	5.23,	10.64,	14.64,	11.59,	13.50,	14.56,	1644,	1659
35,	8359,	8930,	9020,	8372,	7687,	8448,	7980,	8674,	8330,	8415,	8447,	8436,	8489,	8406,	12.09,	11.19,	14.31,	0.84,	9.79,	1.13,	1.94,	10.76,	5.23,	10.64,	14.64,	11.59,	13.50,	14.56,	1644,	1660
36,	8348,	8934,	9002,	8373,	7726,	8448,	7977,	8674,	8342,	8404,	8464,	8445,	8499,	8417,	12.09,	11.19,	14.31,	0.84,	9.79,	1.13,	1.94,	10.76,	5.23,	10.64,	14.64,	11.59,	13.50,	14.56,	1644,	1661
37,	8374,	8958,	9006,	8376,	7708,	8454,	8002,	8709,	8365,	8436,	8483,	8456,	8512,	8435,	12.09,	11.19,	14.31,	0.84,	9.79,	1.13,	1.94,	10.76,	5.23,	10.64,	14.64,	11.59,	13.50,	14.56,	1643,	1661
38,	8357,	8954,	9014,	8378,	7678,	8450,	8013,	8708,	8360,	8452,	8477,	8445,	8516,	8436,	12.09,	11.19,	14.31,	0.84,	9.79,	1.13,	1.94,	10.76,	5.23,	10.64,	14.64,	11.59,	13.50,	14.56,	1644,	1662
39,	8354,	8942,	9011,	8384,	7735,	8438,	7992,	8690,	8337,	8423,	8450,	8440,	8493,	8414,	12.09,	11.19,	14.31,	0.84,	9.79,	1.13,	1.94,	10.76,	5.23,	10.64,	14.64,	11.59,	13.50,	14.56,	1643,	1659
40,	8343,	8946,	9002,	8386,	7715,	8433,	7980,	8683,	8333,	8408,	8451,	8438,	8492,	8411,	12.09,	11.19,	14.31,	0.84,	9.79,	1.13,	1.94,	10.76,	5.23,	10.64,	14.64,	11.59,	13.50,	14.56,	1644,	1658
41,	8352,	8954,	9009,	8384,	7723,	8444,	8013,	8681,	8339,	8416,	8473,	8449,	8512,	8430,	12.09,	11.19,	14.31,	0.84,	9.79,	1.13,	1.94,	10.76,	5.23,	10.64,	14.64,	11.59,	13.50,	14.56,	1645,	1656
42,	8377,	8952,	9022,	8376,	7724,	8456,	8013,	8669,	8338,	8400,	8465,	8449,	8494,	8424,	12.09,	11.19,	14.31,	0.84,	9.79,	1.13,	1.94,	10.76,	5.23,	10.64,	14.64,	11.59,	13.50,	14.56,	1645,	1658
43,	8327,	8931,	9007,	8373,	7696,	8443,	7956,	8645,	8333,	8376,	8443,	8421,	8468,	8399,	12.09,	11.19,	14.31,	0.84,	9.79,	1.13,	1.94,	10.76,	5.23,	10.64,	14.64,	11.59,	13.50,	14.56,	1647,	1659
44,	8320,	8935,	8988,	8383,	7731,	8427,	7944,	8654,	8324,	8383,	8435,	8414,	8464,	8387,	12.09,	11.19,	14.31,	0.84,	9.79,	1.13,	1.94,	10.76,	5.23,	10.64,	14.64,	11.59,	13.50,	14.56,	1646,	1661
45,	8348,	8963,	9002,	8388,	7688,	8443,	7979,	8679,	8342,	8414,	8443,	8424,	8477,	8405,	12.09,	11.19,	14.31,	0.84,	9.79,	1.13,	1.94,	10.76,	5.23,	10.64,	14.64,	11.59,	13.50,	14.56,	1647,	1662
46,	8341,	8957,	9017,	8379,	7702,	8461,	8004,	8679,	8352,	8420,	8457,	8443,	8500,	8426,	12.09,	11.19,	14.31,	0.84,	9.79,	1.13,	1.94,	10.76,	5.23,	10.64,	14.64,	11.59,	13.50,	14.56,	1646,	1662
47,	8348,	8942,	9001,	8378,	7752,	8454,	8013,	8672,	8336,	8406,	8465,	8448,	8502,	8419,	12.09,	11.19,	14.31,	0.84,	9.79,	1.13,	1.94,	10.76,	5.23,	10.64,	14.64,	11.59,	13.50,	14.56,	1647,	1663
48,	8334,	8955,	9007,	8402,	7704,	8458,	8023,	8682,	8352,	8421,	8469,	8425,	8488,	8418,	12.09,	11.19,	14.31,	0.84,	9.79,	1.13,	1.94,	10.76,	5.23,	10.64,	14.64,	11.59,	13.50,	14.56,	1646,	1661
49,	8342,	8971,	9034,	8406,	7720,	8465,	8024,	8685,	8365,	8434,	8470,	8429,	8489,	8424,	12.09,	11.19,	14.31,	0.84,	9.79,	1.13,	1.94,	10.76,	5.23,	10.64,	14.64,	11.59,	13.50,	14.56,	1647,	1660
50,	8335,	8947,	9001,	8376,	7721,	8446,	7994,	8670,	8344,	8405,	8455,	8427,	8490,	8402,	12.09,	11.19,	14.31,	0.84,	9.79,	1.13,	1.94,	10.76,	5.23,	10.64,	14.64,	11.59,	13.50,	14.56,	1646,	1659
51,	8307,	8939,	8986,	8383,	7724,	8444,	7987,	8687,	8355,	8399,	8450,	8427,	8479,	8403,	12.09,	11.19,	14.31,	0.84,	9.79,	1.13,	1.94,	10.76,	5.23,	10.64,	14.64,	11.59,	13.50,	14.56,	1647,	1659
52,	8354,	8966,	9037,	8405,	7737,	8466,	8015,	8704,	8374,	8427,	8458,	8453,	8483,	8431,	12.09,	11.19,	14.31,	0.84,	9.79,	1.13,	1.94,	10.76,	5.23,	10.64,	14.64,	11.59,	13.50,	14.56,	1648,	1658
53,	8350,	8951,	9036,	8392,	7683,	8468,	8010,	8660,	8355,	8417,	8464,	8437,	8496,	8419,	12.09,	11.19,	14.31,	0.84,	9.79,	1.13,	1.94,	10.76,	5.23,	10.64,	14.64,	11.59,	13.50,	14.56,	1646,	1660
54,	8326,	8951,	9012,	8388,	7733,	8457,	7980,	8646,	8342,	8398,	8471,	8427,	8498,	8402,	12.09,	11.19,	14.31,	0.84,	9.79,	1.13,	1.94,	10.76,	5.23,	10.64,	14.64,	11.59,	13.50,	14.56,	1647,	1661
55,	8343,	8973,	9018,	8395,	7741,	8453,	7961,	8669,	8354,	8412,	8467,	8440,	8492,	8413,	12.09,	11.19,	14.31,	0.84,	9.79,	1.13,	1.94,	10.76,	5.23,	10.64,	14.64,	11.59,	13.50,	14.56,	1646,	1661
56,	8322,	8955,	9019,	8394,	7692,	8461,	7975,	8667,	8358,	8420,	8461,	8434,	8492,	8419,	12.09,	11.19,	14.31,	0.84,	9.79,	1.13,	1.94,	10.76,	5.23,	10.64,	14.64,	11.59,	13.50,	14.56,	1647,	1663
57,	8336,	8954,	9021,	8408,	7736,	8477,	8015,	8674,	8349,	8411,	8466,	8443,	8497,	8421,	12.09,	11.19,	14.31,	0.84,	9.79,	1.13,	1.94,	10.76,	5.23,	10.64,	14.64,	11.59,	13.50,	14.56,	1646,	1662
58,	8347,	8971,	9036,	8423,	7726,	8482,	8023,	8688,	8357,	8413,	8470,	8450,	8505,	8434,	12.09,	11.19,	14.31,	0.84,	9.79,	1.13,	1.94,	10.76,	5.23,	10.64,	14.64,	11.59,	13.50,	14.56,	1646,	1663
59,	8341,	8970,	9057,	8429,	7733,	8480,	8004,	8695,	8365,	8433,	8476,	8459,	8501,	8444,	12.09,	11.19,	14.31,	0.84,	9.79,	1.13,	1.94,	10.76,	5.23,	10.64,	14.64,	11.59,	13.50,	14.56,	1645,	1663
60,	8347,	8974,	9048,	8426,	7733,	8480,	8010,	8684,	8353,	8431,	8471,	8454,	8483,	8428,	12.09,	11.19,	14.31,	0.84,	9.79,	1.13,	1.94,	10.76,	5.23,	10.64,	14.64,	11.59,	13.50,	14.56,	1645,	1662
61,	8308,	8969,	9027,	8419,	7700,	8469,	8016,	8656,	8340,	8401,	8452,	8416,	8471,	8399,	12.09,	11.19,	14.31,	0.84,	9.79,	1.13,	1.94,	10.76,	5.23,	10.64,	14.64,	11.59,	13.50,	14.56,	1644,	1662
62,	8320,	8967,	9049,	8433,	7743,	8462,	8001,	8678,	8342,	8399,	8451,	8427,	8477,	8406,	12.09,	11.19,	14.31,	0.84,	9.79,	1.13,	1.94,	10.76,	5.23,	10.64,	14.64,	11.59,	13.50,	14.56,	1643,	1660
63,	8329,	8956,	9051,	8433,	7713,	8468,	7988,	8683,	8340,	8407,	8461,	8441,	8477,	8418,	12.09,	11.19,	14.31,	0.84,	9.79,	1.13,	1.94,	10.76,	5.23,	10.64,	14.64,	11.59,	13.50,	14.56,	1642,	1661
64,	8290,	8924,	9017,	8393,	7703,	8469,	7978,	8627,	8326,	8372,	8434,	8408,	8452,	8392,	12.18,	11.19,	14.31,	0.84,	9.79,	1.13,	1.94,	10.76,	5.23,	10.64,	14.64,	11.59,	13.50,	14.56,	1643,	1661
65,	8323,	8930,	9040,	8386,	7746,	8474,	7992,	8620,	8336,	8354,	8410,	8409,	8435,	8383,	12.18,	10.96,	14.31,	0.84,	9.79,	1.13,	1.94,	10.76,	5.23,	10.64,	14.64,	11.59,	13.50,	14.56,	1642,	1661
66,	8310,	8950,	9058,	8414,	7715,	8476,	7999,	8655,	8354,	8387,	8422,	8413,	8443,	8395,	12.18,	10.96,	14.21,	0.84,	9.79,	1.13,	1.94,	10.76,	5.23,	10.64,	14.64,	11.59,	13.50,	14.56,	1643,	1662
67,	8279,	8945,	9019,	8407,	7729,	8457,	7975,	8658,	8331,	8393,	8423,	8398,	8445,	8383,	12.18,	10.96,	14.21,	0.87,	9.79,	1.13,	1.94,	10.76,	5.23,	10.64,	14.64,	11.59,	13.50,	14.56,	1642,	1661
68,	8290,	8926,	8984,	8382,	7719,	8441,	7949,	8631,	8306,	8365,	8415,	8381,	8434,	8364,	12.18,	10.96,	14.21,	0.87,	9.73,	1.13,	1.94,	10.76,	5.23,	10.64,	14.64,	11.59,	13.50,	14.56,	1643,	1662
69,	8278,	8919,	9006,	8390,	7719,	8461,	7961,	8641,	8329,	8379,	8429,	8396,	8450,	8383,	12.18,	10.96,	14.21,	0.87,	9.73,	1.14,	1.94,	10.76,	5.23,	10.64,	14.64,	11.59,	13.50,	14.56,	1642,	1662
70,	8315,	8952,	9072,	8417,	7748,	8487,	7996,	8688,	8357,	8421,	8457,	8444,	8494,	8421,	12.18,	10.96,	14.21,	0.87,	9.73,	1.14,	1.90,	10.76,	5.23,	10.64,	14.64,	11.59,	13.50,	14.56,	1642,	1662
71,	8323,	8964,	9067,	8434,	7687,	8477,	8002,	8689,	8359,	8422,	8478,	8446,	8507,	8428,	12.18,	10.96,	14.21,	0.87,	9.73,	1.14,	1.90,	10.76,	5.23,	10.64,	14.64,	11.59,	13.50,	14.56,	1643,	1659
72,	8298,	8940,	9017,	8429,	7719,	8465,	8010,	8684,	8358,	8414,	8466,	8430,	8482,	8420,	12.18,	10.96,	14.21,	0.87,	9.73,	1.14,	1.90,	10.76,	5.24,	10.64,	14.64,	11.59,	13.50,	14.56,	1642,	1659
73,	8321,	8937,	9042,	8410,	7747,	8479,	8026,	8702,	8365,	8420,	8444,	8436,	8467,	8419,	12.18,	10.96,	14.21,	0.87,	9.73,	1.14,	1.90,	10.76,	5.24,	10.64,	14.64,	11.59,	13.50,	14.56,	1644,	1658
74,	8320,	8955,	9095,	8401,	7701,	8492,	8026,	8688,	8370,	8412,	8448,	8431,	8474,	8413,	12.18,	10.96,	14.21,	0.87,	9.73,	1.14,	1.90,	10.76,	5.24,	10.64,	14.67,	11.59,	13.50,	14.56,	1643,	1657
75,	8316,	8947,	9078,	8403,	7736,	8483,	8015,	8675,	8360,	8398,	8438,	8424,	8469,	8397,	12.18,	10.96,	14.21,	0.87,	9.73,	1.14,	1.90,	10.76,	5.24,	10.64,	14.67,	11.54,	13.50,	14.56,	1643,	1659
76,	8285,	8913,	9012,	8401,	7729,	8471,	7985,	8661,	8357,	8389,	8409,	8397,	8450,	8377,	12.18,	10.96,	14.21,	0.87,	9.73,	1.14,	1.90,	10.76,	5.24,	10.64,	14.67,	11.54,	13.47,	14.56,	1643,	1659
77,	8264,	8925,	9009,	8404,	7734,	8471,	7984,	8647,	8364,	8394,	8423,	8398,	8456,	8378,	12.18,	10.96,	14.21,	0.87,	9.73,	1.14,	1.90,	10.76,	5.24,	10.64,	14.67,	11.54,	13.47,	14.52,	1643,	1659
78,	8303,	8962,	9046,	8414,	7737,	8483,	8020,	8663,	8373,	8416,	8458,	8431,	8470,	8400,	12.18,	10.96,	14.21,	0.87,	9.73,	1.14,	1.90,	10.76,	5.24,	10.64,	14.64,	11.54,	13.47,	14.52,	1643,	1659
79,	8296,	8946,	9056,	8410,	7694,	8489,	8019,	8675,	8380,	8432,	8463,	8431,	8475,	8412,	12.18,	10.96,	14.21,	0.87,	9.73,	1.14,	1.90,	10.76,	5.24,	10.64,	14.64,	11.54,	13.47,	14.52,	1644,	1660
80,	8293,	8930,	9060,	8398,	7743,	8476,	7984,	8674,	8368,	8423,	8452,	8430,	8476,	8403,	12.18,	10.96,	14.21,	0.87,	9.73,	1.14,	1.90,	10.76,	5.24,	10.64,	14.64,	11.54,	13.45,	14.52,	1644,	1660
81,	8293,	8938,	9058,	8405,	7735,	8466,	7965,	8668,	8355,	8398,	8449,	8428,	8477,	8394,	12.18,	10.96,	14.21,	0.87,	9.73,	1.14,	1.90,	10.76,	5.24,	10.64,	14.64,	11.54,	13.45,	14.53,	1644,	1661
82,	8274,	8934,	9051,	8416,	7715,	8470,	7984,	8656,	8355,	8383,	8445,	8427,	8477,	8404,	12.18,	10.96,	14.21,	0.87,	9.73,	1.14,	1.90,	10.76,	5.24,	10.64,	14.64,	11.54,	13.45,	14.53,	1645,	1660
83,	8323,	8942,	9074,	8422,	7750,	8473,	8012,	8675,	8364,	8410,	8458,	8455,	8487,	8427,	12.18,	10.96,	14.21,	0.87,	9.73,	1.14,	1.90,	10.76,	5.24,	10.64,	14.64,	11.50,	13.45,	14.53,	1645,	1661
84,	8323,	8949,	9096,	8431,	7725,	8471,	8011,	8693,	8382,	8441,	8483,	8462,	8499,	8432,	12.18,	10.96,	14.21,	0.87,	9.73,	1.14,	1.90,	10.76,	5.24,	10.64,	14.64,	11.50,	13.50,	14.53,	1646,	1660
85,	8283,	8934,	9071,	8421,	7739,	8458,	7985,	8663,	8363,	8408,	8458,	8441,	8464,	8400,	12.18,	10.96,	14.21,	0.87,	9.73,	1.14,	1.90,	10.76,	5.24,	10.64,	14.64,	11.50,	13.50,	14.53,	1645,	1659
86,	8266,	8912,	9023,	8385,	7711,	8440,	7963,	8622,	8320,	8355,	8409,	8403,	8417,	8354,	12.18,	10.96,	14.21,	0.87,	9.73,	1.14,	1.90,	10.76,	5.24,	10.64,	14.68,	11.50,	13.50,	14.53,	1647,	1659
87,	8200,	8870,	8971,	8335,	7684,	8426,	7932,	8597,	8288,	8325,	8379,	8350,	8392,	8317,	12.18,	10.96,	14.21,	0.87,	9.73,	1.14,	1.90,	10.76,	5.24,	10.64,	14.68,	11.50,	13.50,	14.53,	1647,	1659
88,	8195,	8848,	8959,	8305,	7740,	8423,	7916,	8578,	8262,	8294,	8347,	8334,	8370,	8294,	12.18,	10.96,	14.21,	0.87,	9.73,	1.14,	1.90,	10.76,	5.24,	10.64,	14.68,	11.50,	13.45,	14.53,	1647,	1661
89,	8236,	8880,	8997,	8336,	7709,	8448,	7953,	8579,	8288,	8298,	8357,	8350,	8384,	8312,	12.18,	10.96,	14.21,	0.87,	9.73,	1.14,	1.90,	10.76,	5.24,	10.64,	14.68,	11.50,	13.45,	14.53,	1647,	1662
90,	8258,	8921,	9029,	8380,	7718,	8480,	7994,	8633,	8360,	8361,	8411,	8397,	8437,	8359,	12.18,	10.96,	14.21,	0.87,	9.73,	1.14,	1.90,	10.76,	5.24,	10.64,	14.67,	11.50,	13.45,	14.53,	1647,	1663
91,	8282,	8934,	9032,	8383,	7747,	8485,	8003,	8676,	8403,	8412,	8437,	8432,	8465,	8389,	12.18,	10.96,	14.21,	0.87,	9.73,	1.14,	1.90,	10.76,	5.24,	10.64,	14.67,	11.54,	13.45,	14.53,	1647,	1663
92,	8275,	8926,	9046,	8392,	7726,	8489,	8019,	8672,	8405,	8420,	8449,	8424,	8468,	8402,	12.18,	10.96,	14.21,	0.87,	9.73,	1.14,	1.90,	10.76,	5.24,	10.64,	14.67,	11.54,	13.50,	14.53,	1647,	1665
93,	8303,	8943,	9086,	8422,	7755,	8497,	8044,	8680,	8402,	8418,	8479,	8444,	8484,	8414,	12.18,	10.96,	14.21,	0.87,	9.73,	1.14,	1.90,	10.76,	5.24,	10.64,	14.67,	11.54,	13.50,	14.52,	1648,	1664
94,	8308,	8955,	9088,	8426,	7726,	8483,	8023,	8684,	8403,	8415,	8488,	8457,	8498,	8415,	12.18,	10.96,	14.21,	0.87,	9.73,	1.14,	1.90,	10.76,	5.24,	10.64,	14.68,	11.54,	13.50,	14.52,	1646,	1664
95,	8288,	8956,	9085,	8431,	7732,	8477,	8017,	8696,	8410,	8427,	8485,	8455,	8508,	8418,	12.18,	10.96,	14.21,	0.87,	9.73,	1.14,	1.90,	10.76,	5.24,	10.64,	14.68,	11.51,	13.50,	14.52,	1648,	1662
96,	8325,	8970,	9113,	8457,	7749,	8496,	8051,	8719,	8415,	8448,	8487,	8472,	8511,	8428,	12.18,	10.96,	14.21,	0.87,	9.73,	1.14,	1.90,	10.76,	5.24,	10.64,	14.68,	11.51,	13.50,	14.52,	1646,	1659
97,	8310,	8949,	9110,	8442,	7688,	8500,	8044,	8701,	8408,	8443,	8478,	8462,	8490,	8416,	12.18,	10.96,	14.21,	0.87,	9.73,	1.14,	1.90,	10.76,	5.24,	10.64,	14.68,	11.51,	13.50,	14.52,	1647,	1659
98,	8293,	8922,	9093,	8410,	7724,	8482,	8008,	8686,	8394,	8418,	8463,	8460,	8468,	8407,	12.18,	10.96,	14.21,	0.87,	9.73,	1.14,	1.90,	10.76,	5.24,	10.64,	14.64,	11.51,	13.50,	14.52,	1647,	1658
99,	8298,	8913,	9079,	8404,	7731,	8471,	7983,	8682,	8385,	8405,	8464,	8458,	8472,	8416,	12.18,	10.96,	14.21,	0.87,	9.73,	1.14,	1.90,	10.76,	5.24,	10.64,	14.64,	11.54,	13.50,	14.52,	1647,	1659
100,	8271,	8905,	9073,	8409,	7706,	8468,	7968,	8658,	8383,	8401,	8469,	8440,	8484,	8411,	12.18,	10.96,	14.21,	0.87,	9.73,	1.14,	1.90,	10.76,	5.24,	10.64,	14.64,	11.54,	13.45,	14.52,	1646,	1660
101,	8275,	8913,	9069,	8403,	7731,	8462,	7963,	8647,	8369,	8391,	8454,	8436,	8479,	8390,	12.18,	10.96,	14.21,	0.87,	9.73,	1.14,	1.90,	10.76,	5.24,	10.64,	14.64,	11.54,	13.45,	14.56,	1645,	1662
102,	8260,	8913,	9050,	8391,	7712,	8458,	7970,	8652,	8366,	8390,	8452,	8433,	8478,	8386,	12.18,	10.96,	14.21,	0.87,	9.73,	1.14,	1.90,	10.76,	5.24,	10.64,	14.67,	11.54,	13.45,	14.56,	1645,	1662
103,	8265,	8914,	9054,	8399,	7749,	8467,	7990,	8663,	8380,	8402,	8475,	8449,	8486,	8408,	12.18,	10.96,	14.21,	0.87,	9.73,	1.14,	1.90,	10.76,	5.24,	10.64,	14.67,	11.53,	13.45,	14.56,	1644,	1663
104,	8300,	8916,	9067,	8409,	7733,	8477,	8011,	8663,	8373,	8394,	8469,	8460,	8477,	8416,	12.18,	10.96,	14.21,	0.87,	9.73,	1.14,	1.90,	10.76,	5.24,	10.64,	14.67,	11.53,	13.50,	14.56,	1644,	1662
105,	8270,	8916,	9069,	8409,	7679,	8481,	8024,	8654,	8364,	8385,	8451,	8447,	8468,	8408,	12.18,	10.96,	14.21,	0.87,	9.73,	1.14,	1.90,	10.76,	5.24,	10.64,	14.67,	11.53,	13.50,	14.52,	1643,	1662
106,	8280,	8935,	9076,	8413,	7735,	8483,	8033,	8679,	8372,	8405,	8461,	8458,	8476,	8417,	12.18,	10.96,	14.21,	0.87,	9.73,	1.14,	1.90,	10.76,	5.24,	10.64,	14.65,	11.53,	13.50,	14.52,	1645,	1661
107,	8290,	8929,	9059,	8410,	7717,	8481,	8010,	8686,	8376,	8409,	8465,	8452,	8480,	8413,	12.18,	10.96,	14.21,	0.87,	9.73,	1.14,	1.90,	10.76,	5.24,	10.64,	14.65,	11.53,	13.50,	14.52,	1644,	1660
108,	8248,	8892,	9029,	8381,	7699,	8472,	7975,	8640,	8348,	8370,	8435,	8429,	8455,	8374,	12.18,	10.96,	14.21,	0.87,	9.73,	1.14,	1.90,	10.76,	5.24,	10.64,	14.65,	11.53,	13.50,	14.52,	1644,	1660
109,	8240,	8877,	9015,	8339,	7717,	8451,	7957,	8603,	8313,	8329,	8399,	8411,	8417,	8335,	12.18,	10.96,	14.21,	0.87,	9.73,	1.14,	1.90,	10.76,	5.24,	10.64,	14.65,	11.53,	13.50,	14.53,	1645,	1658
110,	8224,	8883,	9012,	8352,	7705,	8447,	7950,	8599,	8322,	8328,	8396,	8389,	8406,	8327,	12.18,	10.96,	14.21,	0.87,	9.73,	1.14,	1.90,	10.76,	5.24,	10.64,	14.67,	11.53,	13.50,	14.53,	1644,	1659
111,	8237,	8897,	9024,	8391,	7730,	8464,	7964,	8624,	8339,	8352,	8414,	8395,	8420,	8340,	12.18,	10.96,	14.21,	0.87,	9.73,	1.14,	1.90,	10.76,	5.24,	10.64,	14.67,	11.50,	13.50,	14.53,	1644,	1658
112,	8238,	8889,	8998,	8372,	7684,	8457,	7961,	8621,	8325,	8350,	8404,	8392,	8412,	8343,	12.18,	10.96,	14.21,	0.87,	9.73,	1.14,	1.90,	10.76,	5.24,	10.64,	14.67,	11.50,	13.47,	14.53,	1643,	1660
113,	8210,	8878,	8958,	8348,	7697,	8441,	7934,	8600,	8316,	8339,	8387,	8383,	8399,	8343,	12.18,	10.96,	14.21,	0.87,	9.73,	1.14,	1.90,	10.76,	5.24,	10.64,	14.67,	11.50,	13.47,	14.55,	1643,	1660
114,	8248,	8898,	8988,	8356,	7746,	8456,	7950,	8615,	8332,	8353,	8403,	8402,	8421,	8357,	12.18,	10.96,	14.21,	0.87,	9.73,	1.14,	1.90,	10.76,	5.24,	10.64,	14.67,	11.50,	13.47,	14.55,	1642,	1661
115,	8230,	8887,	8993,	8345,	7693,	8452,	7973,	8613,	8320,	8341,	8403,	8379,	8426,	8351,	12.18,	10.96,	14.21,	0.87,	9.73,	1.14,	1.90,	10.76,	5.24,	10.64,	14.67,	11.51,	13.47,	14.55,	1643,	1661
116,	8201,	8869,	8950,	8333,	7716,	8428,	7954,	8603,	8287,	8315,	8379,	8355,	8405,	8326,	12.18,	10.96,	14.21,	0.87,	9.73,	1.14,	1.90,	10.76,	5.24,	10.64,	14.67,	11.51,	13.48,	14.55,	1642,	1659
117,	8216,	8892,	8958,	8344,	7717,	8432,	7944,	8609,	8302,	8337,	8382,	8365,	8404,	8324,	12.18,	10.96,	14.21,	0.87,	9.73,	1.14,	1.90,	10.76,	5.24,	10.64,	14.67,	11.51,	13.48,	14.52,	1643,	1657
118,	8200,	8906,	8986,	8351,	7720,	8448,	7974,	8619,	8329,	8355,	8390,	8370,	8411,	8336,	12.18,	10.96,	14.21,	0.87,	9.73,	1.14,	1.90,	10.76,	5.24,	10.64,	14.67,	11.51,	13.48,	14.52,	1643,	1657
119,	8212,	8901,	8965,	8350,	7742,	8448,	7983,	8628,	8313,	8335,	8376,	8366,	8401,	8326,	12.18,	10.96,	14.21,	0.87,	9.73,	1.14,	1.90,	10.76,	5.24,	10.64,	14.67,	11.54,	13.48,	14.52,	1644,	1656
120,	8196,	8879,	8935,	8353,	7670,	8447,	7951,	8618,	8310,	8338,	8384,	8353,	8396,	8322,	12.18,	10.96,	14.21,	0.87,	9.73,	1.14,	1.90,	10.76,	5.24,	10.64,	14.67,	11.54,	13.50,	14.52,	1644,	1658
121,	8199,	8877,	8969,	8357,	7721,	8449,	7955,	8630,	8332,	8371,	8402,	8374,	8406,	8349,	12.18,	10.96,	14.21,	0.87,	9.73,	1.14,	1.90,	10.76,	5.24,	10.64,	14.67,	11.54,	13.50,	14.56,	1644,	1659
122,	8248,	8897,	9006,	8350,	7748,	8449,	7982,	8656,	8352,	8383,	8408,	8396,	8427,	8375,	12.18,	10.96,	14.21,	0.87,	9.73,	1.14,	1.90,	10.76,	5.24,	10.64,	14.67,	11.54,	13.50,	14.56,	1643,	1660
123,	8243,	8918,	9017,	8367,	7692,	8469,	8006,	8669,	8375,	8399,	8439,	8402,	8469,	8400,	12.18,	10.96,	14.21,	0.87,	9.73,	1.14,	1.90,	10.76,	5.24,	10.64,	14.67,	11.53,	13.50,	14.56,	1644,	1659
124,	8280,	8949,	9047,	8417,	7747,	8488,	8022,	8688,	8383,	8418,	8463,	8436,	8489,	8422,	12.18,	10.96,	14.21,	0.87,	9.73,	1.14,	1.90,	10.76,	5.24,	10.64,	14.67,	11.53,	13.48,	14.56,	1643,	1659
125,	8272,	8932,	9036,	8410,	7735,	8470,	7984,	8670,	8358,	8398,	8440,	8417,	8468,	8401,	12.18,	10.96,	14.21,	0.87,	9.73,	1.14,	1.90,	10.76,	5.24,	10.64,	14.67,	11.53,	13.48,	14.52,	1644,	1661
126,	8212,	8898,	8989,	8369,	7720,	8448,	7947,	8646,	8335,	8378,	8424,	8388,	8449,	8376,	12.18,	10.96,	14.21,	0.87,	9.73,	1.14,	1.90,	10.76,	5.24,	10.64,	14.68,	11.53,	13.48,	14.52,	1643,	1661
127,	8247,	8920,	8990,	8378,	7733,	8452,	7974,	8654,	8332,	8383,	8438,	8421,	8447,	8391,	12.18,	10.96,	14.21,	0.87,	9.73,	1.14,	1.90,	10.76,	5.24,	10.64,	14.68,	11.53,	13.48,	14.52,	1644,	1662
0,	8245,	8901,	9014,	8380,	7743,	8446,	7959,	8651,	8335,	8371,	8420,	8403,	8440,	8386,	11.96,	10.96,	14.21,	0.87,	9.73,	1.14,	1.90,	10.76,	5.24,	10.64,	14.68,	11.53,	13.48,	14.52,	1644,	1659
1,	8241,	8897,	8993,	8367,	7709,	8433,	7954,	8642,	8318,	8367,	8400,	8381,	8431,	8360,	11.96,	10.93,	14.21,	0.87,	9.73,	1.14,	1.90,	10.76,	5.24,	10.64,	14.68,	11.53,	13.48,	14.52,	1645,	1657
2,	8215,	8915,	8988,	8382,	7700,	8444,	7992,	8639,	8331,	8371,	8422,	8394,	8437,	8368,	11.96,	10.93,	13.81,	0.87,	9.73,	1.14,	1.90,	10.76,	5.24,	10.64,	14.68,	11.53,	13.48,	14.52,	1645,	1657
3,	8262,	8929,	9036,	8404,	7766,	8469,	8009,	8678,	8366,	8403,	8462,	8442,	8467,	8411,	11.96,	10.93,	13.81,	0.84,	9.73,	1.14,	1.90,	10.76,	5.24,	10.64,	14.68,	11.53,	13.48,	14.52,	1645,	1658
4,	8274,	8920,	9053,	8419,	7722,	8472,	7969,	8699,	8381,	8431,	8471,	8450,	8482,	8428,	11.96,	10.93,	13.81,	0.84,	10.39,	1.14,	1.90,	10.76,	5.24,	10.64,	14.68,	11.53,	13.48,	14.52,	1645,	1660
5,	8237,	8918,	9026,	8393,	7722,	8461,	7954,	8668,	8367,	8411,	8446,	8437,	8458,	8409,	11.96,	10.93,	13.81,	0.84,	10.39,	1.16,	1.90,	10.76,	5.24,	10.64,	14.68,	11.53,	13.48,	14.52,	1645,	1661
6,	8239,	8923,	9010,	8349,	7733,	8463,	7982,	8639,	8353,	8378,	8438,	8420,	8448,	8397,	11.96,	10.93,	13.81,	0.84,	10.39,	1.16,	1.93,	10.76,	5.24,	10.64,	14.68,	11.53,	13.48,	14.52,	1644,	1662
7,	8242,	8909,	9012,	8369,	7717,	8469,	7998,	8655,	8363,	8391,	8457,	8412,	8475,	8409,	11.96,	10.93,	13.81,	0.84,	10.39,	1.16,	1.93,	10.64,	5.24,	10.64,	14.68,	11.53,	13.48,	14.52,	1646,	1663
8,	8274,	8926,	9035,	8412,	7745,	8467,	8007,	8691,	8363,	8417,	8464,	8448,	8486,	8420,	11.96,	10.93,	13.81,	0.84,	10.39,	1.16,	1.93,	10.64,	5.26,	10.64,	14.68,	11.53,	13.48,	14.52,	1645,	1661
9,	8251,	8932,	9025,	8402,	7696,	8466,	8010,	8672,	8352,	8399,	8449,	8438,	8467,	8401,	11.96,	10.93,	13.81,	0.84,	10.39,	1.16,	1.93,	10.64,	5.26,	10.64,	14.68,	11.53,	13.48,	14.52,	1646,	1664
10,	8221,	8898,	8996,	8391,	7712,	8473,	8007,	8657,	8355,	8384,	8437,	8408,	8457,	8389,	11.96,	10.93,	13.81,	0.84,	10.39,	1.16,	1.93,	10.64,	5.26,	10.64,	14.68,	11.53,	13.48,	14.52,	1646,	1662
11,	8266,	8870,	9004,	8396,	7747,	8474,	8003,	8689,	8360,	8398,	8442,	8424,	8463,	8397,	11.96,	10.93,	13.81,	0.84,	10.39,	1.16,	1.93,	10.64,	5.26,	10.64,	14.68,	11.48,	13.48,	14.52,	1645,	1663
12,	8246,	8844,	9024,	8382,	7702,	8463,	7988,	8681,	8355,	8399,	8446,	8422,	8463,	8393,	11.96,	10.93,	13.81,	0.84,	10.39,	1.16,	1.93,	10.64,	5.26,	10.64,	14.68,	11.48,	13.45,	14.52,	1647,	1662
13,	8242,	8854,	9037,	8383,	7732,	8461,	7990,	8667,	8352,	8391,	8441,	8425,	8456,	8389,	11.96,	10.93,	13.81,	0.84,	10.39,	1.16,	1.93,	10.64,	5.26,	10.64,	14.68,	11.48,	13.45,	14.55,	1645,	1662
14,	8270,	8869,	9032,	8396,	7721,	8459,	7982,	8675,	8365,	8395,	8440,	8429,	8457,	8391,	11.96,	10.93,	13.81,	0.84,	10.39,	1.16,	1.93,	10.64,	5.26,	10.64,	14.67,	11.48,	13.45,	14.55,	1645,	1663
15,	8232,	8853,	9012,	8384,	7718,	8450,	7942,	8663,	8363,	8390,	8443,	8416,	8466,	8386,	11.96,	10.93,	13.81,	0.84,	10.39,	1.16,	1.93,	10.64,	5.26,	10.64,	14.67,	11.47,	13.45,	14.55,	1645,	1662
16,	8239,	8863,	9014,	8392,	7740,	8457,	7950,	8668,	8355,	8389,	8447,	8430,	8470,	8394,	11.96,	10.93,	13.81,	0.84,	10.39,	1.16,	1.93,	10.64,	5.26,	10.64,	14.67,	11.47,	13.45,	14.55,	1645,	1662
17,	8255,	8882,	9035,	8411,	7693,	8481,	8001,	8691,	8376,	8409,	8456,	8442,	8473,	8418,	11.96,	10.93,	13.81,	0.84,	10.39,	1.16,	1.93,	10.64,	5.26,	10.64,	14.67,	11.47,	13.45,	14.55,	1643,	1663
18,	8257,	8884,	9044,	8412,	7741,	8486,	8016,	8703,	8387,	8423,	8461,	8450,	8483,	8427,	11.96,	10.93,	13.81,	0.84,	10.39,	1.16,	1.93,	10.64,	5.26,	10.64,	14.67,	11.47,	13.45,	14.55,	1645,	1663
19,	8268,	8886,	9029,	8409,	7745,	8477,	8005,	8684,	8362,	8412,	8458,	8446,	8489,	8421,	11.96,	10.93,	13.81,	0.84,	10.39,	1.16,	1.93,	10.64,	5.26,	10.64,	14.67,	11.47,	13.45,	14.55,	1644,	1663
20,	8243,	8875,	9014,	8401,	7701,	8477,	8001,	8665,	8345,	8382,	8452,	8430,	8478,	8407,	11.96,	10.93,	13.81,	0.84,	10.39,	1.16,	1.93,	10.64,	5.26,	10.64,	14.67,	11.47,	13.45,	14.55,	1644,	1663
21,	8259,	8858,	9037,	8393,	7739,	8484,	8003,	8675,	8358,	8376,	8451,	8445,	8472,	8402,	11.96,	10.93,	13.81,	0.84,	10.39,	1.16,	1.93,	10.64,	5.26,	10.64,	14.67,	11.47,	13.45,	14.55,	1644,	1661
22,	8271,	8866,	9063,	8408,	7723,	8489,	8001,	8688,	8369,	8401,	8470,	8460,	8489,	8412,	11.96,	10.93,	13.81,	0.84,	10.39,	1.16,	1.93,	10.64,	5.26,	10.64,	14.67,	11.47,	13.45,	14.55,	1642,	1660
23,	8266,	8900,	9058,	8430,	7739,	8488,	8019,	8703,	8360,	8414,	8476,	8460,	8494,	8417,	11.96,	10.93,	13.81,	0.84,	10.39,	1.16,	1.93,	10.64,	5.26,	10.64,	14.67,	11.47,	13.45,	14.55,	1644,	1658
24,	8274,	8889,	9035,	8422,	7732,	8487,	8019,	8704,	8351,	8412,	8458,	8454,	8475,	8412,	11.96,	10.93,	13.81,	0.84,	10.39,	1.16,	1.93,	10.64,	5.26,	10.64,	14.67,	11.47,	13.45,	14.55,	1643,	1656
25,	8244,	8842,	9028,	8399,	7699,	8485,	7969,	8693,	8365,	8423,	8462,	8449,	8476,	8408,	11.96,	10.93,	13.81,	0.84,	10.39,	1.16,	1.93,	10.64,	5.26,	10.64,	14.67,	11.47,	13.45,	14.55,	1643,	1657
26,	8252,	8855,	9034,	8401,	7743,	8479,	7937,	8689,	8366,	8421,	8468,	8461,	8482,	8401,	11.96,	10.93,	13.81,	0.84,	10.39,	1.16,	1.93,	10.64,	5.26,	10.64,	14.67,	11.47,	13.45,	14.55,	1643,	1657
27,	8245,	8855,	9014,	8394,	7699,	8469,	7944,	8656,	8341,	8391,	8443,	8438,	8467,	8387,	11.96,	10.93,	13.81,	0.84,	10.39,	1.16,	1.93,	10.64,	5.26,	10.64,	14.67,	11.47,	13.45,	14.55,	1643,	1657
28,	8221,	8818,	9010,	8369,	7699,	8464,	7964,	8634,	8322,	8380,	8430,	8418,	8457,	8385,	11.96,	10.93,	13.81,	0.84,	10.39,	1.16,	1.93,	10.64,	5.26,	10.64,	14.67,	11.47,	13.45,	14.55,	1643,	1658
29,	8260,	8843,	9029,	8381,	7745,	8465,	7972,	8664,	8325,	8399,	8444,	8440,	8465,	8394,	11.96,	10.93,	13.81,	0.84,	10.39,	1.16,	1.93,	10.64,	5.26,	10.64,	14.67,	11.47,	13.45,	14.55,	1643,	1658
30,	8252,	8872,	9025,	8413,	7707,	8469,	7988,	8674,	8344,	8393,	8460,	8444,	8481,	8399,	11.96,	10.93,	13.81,	0.84,	10.39,	1.16,	1.93,	10.64,	5.26,	10.64,	14.67,	11.47,	13.45,	14.55,	1643,	1658
31,	8245,	8858,	9028,	8404,	7734,	8479,	8012,	8673,	8338,	8370,	8451,	8442,	8477,	8396,	11.96,	10.93,	13.81,	0.84,	10.39,	1.16,	1.93,	10.64,	5.26,	10.64,	14.67,	11.47,	13.45,	14.55,	1643,	1658
32,	8251,	8839,	9028,	8381,	7732,	8473,	7994,	8672,	8321,	8375,	8435,	8427,	8456,	8379,	11.96,	10.93,	13.81,	0.84,	10.39,	1.16,	1.93,	10.64,	5.26,	10.64,	14.67,	11.47,	13.45,	14.55,	1642,	1657
33,	8223,	8832,	9009,	8390,	7727,	8468,	7973,	8658,	8329,	8392,	8441,	8418,	8457,	8369,	11.96,	10.93,	13.81,	0.84,	10.39,	1.16,	1.93,	10.64,	5.26,	10.64,	14.67,	11.47,	13.45,	14.55,	1642,	1658
34,	8249,	8841,	9016,	8396,	7742,	8474,	7974,	8671,	8340,	8400,	8447,	8444,	8472,	8378,	11.96,	10.93,	13.81,	0.84,	10.39,	1.16,	1.93,	10.64,	5.26,	10.64,	14.67,	11.47,	13.45,	14.55,	1644,	1656
35,	8251,	8845,	9030,	8389,	7681,	8473,	7979,	8682,	8344,	8410,	8439,	8445,	8465,	8382,	11.96,	10.93,	13.81,	0.84,	10.39,	1.16,	1.93,	10.64,	5.26,	10.64,	14.67,	11.47,	13.45,	14.55,	1643,	1656
36,	8233,	8844,	9014,	8394,	7717,	8463,	7977,	8669,	8337,	8412,	8439,	8435,	8446,	8372,	11.96,	10.93,	13.81,	0.84,	10.39,	1.16,	1.93,	10.64,	5.26,	10.64,	14.67,	11.47,	13.45,	14.55,	1644,	1657
37,	8248,	8842,	9003,	8395,	7735,	8463,	7963,	8676,	8345,	8408,	8457,	8439,	8461,	8372,	11.96,	10.93,	13.81,	0.84,	10.39,	1.16,	1.93,	10.64,	5.26,	10.64,	14.67,	11.47,	13.45,	14.55,	1644,	1657
38,	8244,	8836,	9028,	8390,	7703,	8479,	7961,	8701,	8374,	8427,	8478,	8453,	8492,	8399,	11.96,	10.93,	13.81,	0.84,	10.39,	1.16,	1.93,	10.64,	5.26,	10.64,	14.67,	11.47,	13.45,	14.55,	1644,	1659
39,	8266,	8849,	9048,	8399,	7746,	8486,	7982,	8706,	8374,	8439,	8478,	8473,	8491,	8418,	11.96,	10.93,	13.81,	0.84,	10.39,	1.16,	1.93,	10.64,	5.26,	10.64,	14.67,	11.47,	13.45,	14.55,	1645,	1659
40,	8245,	8847,	9022,	8406,	7723,	8472,	7980,	8673,	8349,	8416,	8472,	8453,	8478,	8401,	11.96,	10.93,	13.81,	0.84,	10.39,	1.16,	1.93,	10.64,	5.26,	10.64,	14.67,	11.47,	13.45,	14.55,	1645,	1660
41,	8229,	8839,	9018,	8401,	7730,	8464,	7976,	8669,	8347,	8409,	8478,	8453,	8487,	8397,	11.96,	10.93,	13.81,	0.84,	10.39,	1.16,	1.93,	10.64,	5.26,	10.64,	14.67,	11.47,	13.45,	14.55,	1645,	1660
42,	8282,	8862,	9047,	8410,	7727,	8477,	7993,	8694,	8370,	8441,	8482,	8488,	8496,	8421,	11.96,	10.93,	13.81,	0.84,	10.39,	1.16,	1.93,	10.64,	5.26,	10.64,	14.67,	11.47,	13.45,	14.55,	1645,	1660
43,	8256,	8853,	9036,	8416,	7681,	8475,	7970,	8685,	8378,	8451,	8465,	8469,	8481,	8413,	11.96,	10.93,	13.81,	0.84,	10.39,	1.16,	1.93,	10.64,	5.26,	10.64,	14.67,	11.47,	13.45,	14.55,	1645,	1661
44,	8237,	8832,	9017,	8399,	7743,	8463,	7969,	8687,	8361,	8424,	8453,	8451,	8466,	8386,	11.96,	10.93,	13.81,	0.84,	10.39,	1.16,	1.93,	10.64,	5.26,	10.64,	14.67,	11.47,	13.45,	14.55,	1647,	1661
45,	8247,	8834,	9012,	8380,	7731,	8468,	8000,	8684,	8349,	8409,	8453,	8447,	8469,	8372,	11.96,	10.93,	13.81,	0.84,	10.39,	1.16,	1.93,	10.64,	5.26,	10.64,	14.67,	11.47,	13.45,	14.55,	1646,	1660
46,	8218,	8821,	9010,	8372,	7703,	8469,	7965,	8655,	8339,	8407,	8445,	8441,	8460,	8359,	11.96,	10.93,	13.81,	0.84,	10.39,	1.16,	1.93,	10.64,	5.26,	10.64,	14.67,	11.47,	13.45,	14.55,	1646,	1660
47,	8215,	8801,	8995,	8357,	7726,	8447,	7920,	8649,	8311,	8385,	8420,	8430,	8429,	8335,	11.96,	10.93,	13.81,	0.84,	10.39,	1.16,	1.93,	10.64,	5.26,	10.64,	14.67,	11.47,	13.45,	14.55,	1646,	1659
48,	8166,	8768,	8935,	8323,	7697,	8434,	7918,	8619,	8265,	8333,	8374,	8368,	8384,	8292,	11.96,	10.93,	13.81,	0.84,	10.39,	1.16,	1.93,	10.64,	5.26,	10.64,	14.67,	11.47,	13.45,	14.55,	1646,	1661
49,	8147,	8751,	8905,	8292,	7730,	8447,	7933,	8585,	8248,	8294,	8330,	8340,	8348,	8264,	11.96,	10.93,	13.81,	0.84,	10.39,	1.16,	1.93,	10.64,	5.26,	10.64,	14.67,	11.47,	13.45,	14.55,	1646,	1661
50,	8205,	8782,	8949,	8306,	7720,	8470,	7956,	8623,	8307,	8327,	8357,	8384,	8376,	8305,	11.96,	10.93,	13.81,	0.84,	10.39,	1.16,	1.93,	10.64,	5.26,	10.64,	14.67,	11.47,	13.45,	14.55,	1645,	1662
51,	8237,	8834,	9008,	8372,	7710,	8492,	7990,	8694,	8384,	8420,	8446,	8442,	8469,	8386,	11.96,	10.93,	13.81,	0.84,	10.39,	1.16,	1.93,	10.64,	5.26,	10.64,	14.67,	11.47,	13.45,	14.55,	1645,	1662
52,	8271,	8852,	9035,	8410,	7755,	8494,	7996,	8710,	8376,	8460,	8477,	8474,	8503,	8410,	11.96,	10.93,	13.81,	0.84,	10.39,	1.16,	1.93,	10.64,	5.26,	10.64,	14.67,	11.47,	13.45,	14.55,	1644,	1663
53,	8261,	8834,	9030,	8392,	7709,	8479,	7972,	8675,	8333,	8417,	8457,	8461,	8470,	8388,	11.96,	10.93,	13.81,	0.84,	10.39,	1.16,	1.93,	10.64,	5.26,	10.64,	14.67,	11.47,	13.45,	14.55,	1645,	1664
54,	8249,	8838,	9030,	8395,	7726,	8476,	7973,	8669,	8338,	8402,	8466,	8463,	8473,	8391,	11.96,	10.93,	13.81,	0.84,	10.39,	1.16,	1.93,	10.64,	5.26,	10.64,	14.67,	11.47,	13.45,	14.55,	1644,	1663
55,	8267,	8837,	9027,	8402,	7747,	8476,	7978,	8670,	8342,	8416,	8460,	8467,	8485,	8392,	11.96,	10.93,	13.81,	0.84,	10.39,	1.16,	1.93,	10.64,	5.26,	10.64,	14.67,	11.47,	13.45,	14.55,	1645,	1663
56,	8239,	8813,	9026,	8378,	7720,	8470,	7964,	8659,	8335,	8408,	8439,	8453,	8460,	8381,	11.96,	10.93,	13.81,	0.84,	10.39,	1.16,	1.93,	10.64,	5.26,	10.64,	14.67,	11.47,	13.45,	14.55,	1645,	1659
57,	8260,	8825,	9052,	8384,	7751,	8479,	7965,	8676,	8340,	8408,	8451,	8469,	8450,	8383,	11.96,	10.93,	13.81,	0.84,	10.39,	1.16,	1.93,	10.64,	5.26,	10.64,	14.67,	11.47,	13.45,	14.55,	1645,	1659
58,	8266,	8835,	9043,	8412,	7713,	8490,	7985,	8683,	8348,	8416,	8468,	8468,	8473,	8383,	11.96,	10.93,	13.81,	0.84,	10.39,	1.16,	1.93,	10.64,	5.26,	10.64,	14.67,	11.47,	13.45,	14.55,	1645,	1658
59,	8223,	8813,	9016,	8400,	7721,	8481,	7979,	8670,	8344,	8409,	8450,	8447,	8478,	8369,	11.96,	10.93,	13.81,	0.84,	10.39,	1.16,	1.93,	10.64,	5.26,	10.64,	14.67,	11.47,	13.45,	14.55,	1645,	1658
60,	8252,	8817,	9036,	8379,	7738,	8470,	7956,	8670,	8341,	8402,	8434,	8454,	8460,	8370,	11.96,	10.93,	13.81,	0.84,	10.39,	1.16,	1.93,	10.64,	5.26,	10.64,	14.67,	11.47,	13.45,	14.55,	1644,	1659
61,	8250,	8824,	9036,	8387,	7684,	8467,	7947,	8664,	8344,	8409,	8450,	8454,	8457,	8381,	11.96,	10.93,	13.81,	0.84,	10.39,	1.16,	1.93,	10.64,	5.26,	10.64,	14.67,	11.47,	13.45,	14.55,	1644,	1661
62,	8245,	8822,	9023,	8388,	7736,	8474,	7956,	8672,	8341,	8418,	8456,	8461,	8468,	8386,	11.96,	10.93,	13.81,	0.84,	10.39,	1.16,	1.93,	10.64,	5.26,	10.64,	14.67,	11.47,	13.45,	14.55,	1644,	1661
63,	8266,	8813,	9040,	8377,	7743,	8487,	7967,	8685,	8348,	8418,	8447,	8463,	8469,	8393,	11.96,	10.93,	13.81,	0.84,	10.39,	1.16,	1.93,	10.64,	5.26,	10.64,	14.67,	11.47,	13.45,	14.55,	1643,	1662
64,	8253,	8802,	9047,	8386,	7718,	8483,	7976,	8675,	8350,	8414,	8457,	8456,	8469,	8396,	12.09,	10.93,	13.81,	0.84,	10.39,	1.16,	1.93,	10.64,	5.26,	10.64,	14.67,	11.47,	13.45,	14.55,	1645,	1662
65,	8270,	8822,	9042,	8403,	7745,	8476,	7979,	8673,	8336,	8417,	8473,	8471,	8485,	8401,	12.09,	10.95,	13.81,	0.84,	10.39,	1.16,	1.93,	10.64,	5.26,	10.64,	14.67,	11.47,	13.45,	14.55,	1643,	1661
66,	8254,	8821,	9045,	8397,	7720,	8485,	7981,	8671,	8338,	8418,	8467,	8467,	8495,	8406,	12.09,	10.95,	13.88,	0.84,	10.39,	1.16,	1.93,	10.64,	5.26,	10.64,	14.67,	11.47,	13.45,	14.55,	1644,	1662
67,	8239,	8799,	9048,	8387,	7748,	8487,	7983,	8688,	8353,	8413,	8452,	8465,	8479,	8401,	12.09,	10.95,	13.88,	0.87,	10.39,	1.16,	1.93,	10.64,	5.26,	10.64,	14.67,	11.47,	13.45,	14.55,	1644,	1660
68,	8245,	8790,	9018,	8371,	7718,	8468,	7953,	8706,	8351,	8416,	8450,	8459,	8470,	8377,	12.09,	10.95,	13.88,	0.87,	10.56,	1.16,	1.93,	10.64,	5.26,	10.64,	14.67,	11.47,	13.45,	14.55,	1643,	1659
69,	8212,	8771,	8990,	8351,	7683,	8461,	7943,	8673,	8333,	8410,	8449,	8438,	8473,	8358,	12.09,	10.95,	13.88,	0.87,	10.56,	1.17,	1.93,	10.64,	5.26,	10.64,	14.67,	11.47,	13.45,	14.55,	1643,	1656
70,	8238,	8776,	9013,	8360,	7759,	8476,	7984,	8664,	8319,	8396,	8445,	8449,	8466,	8367,	12.09,	10.95,	13.88,	0.87,	10.56,	1.17,	1.90,	10.64,	5.26,	10.64,	14.67,	11.47,	13.45,	14.55,	1642,	1655
71,	8234,	8780,	9012,	8365,	7726,	8476,	7971,	8682,	8324,	8402,	8437,	8439,	8461,	8368,	12.09,	10.95,	13.88,	0.87,	10.56,	1.17,	1.90,	10.65,	5.26,	10.64,	14.67,	11.47,	13.45,	14.55,	1643,	1654
72,	8192,	8762,	8982,	8340,	7702,	8450,	7913,	8660,	8319,	8398,	8414,	8417,	8453,	8347,	12.09,	10.95,	13.88,	0.87,	10.56,	1.17,	1.90,	10.65,	5.23,	10.64,	14.67,	11.47,	13.45,	14.55,	1642,	1654
73,	8204,	8752,	8968,	8317,	7718,	8429,	7894,	8620,	8296,	8377,	8397,	8411,	8440,	8339,	12.09,	10.95,	13.88,	0.87,	10.56,	1.17,	1.90,	10.65,	5.23,	10.64,	14.67,	11.47,	13.45,	14.55,	1643,	1654
74,	8187,	8744,	8960,	8327,	7708,	8441,	7919,	8624,	8299,	8369,	8406,	8394,	8437,	8345,	12.09,	10.95,	13.88,	0.87,	10.56,	1.17,	1.90,	10.65,	5.23,	10.64,	14.68,	11.47,	13.45,	14.55,	1641,	1656
75,	8189,	8746,	8958,	8338,	7734,	8457,	7958,	8657,	8308,	8371,	8416,	8400,	8442,	8345,	12.09,	10.95,	13.88,	0.87,	10.56,	1.17,	1.90,	10.65,	5.23,	10.64,	14.68,	11.64,	13.45,	14.55,	1644,	1657
76,	8194,	8748,	8954,	8325,	7675,	8447,	7949,	8650,	8301,	8369,	8410,	8397,	8440,	8346,	12.09,	10.95,	13.88,	0.87,	10.56,	1.17,	1.90,	10.65,	5.23,	10.64,	14.68,	11.64,	13.47,	14.55,	1642,	1657
77,	8170,	8744,	8953,	8319,	7687,	8437,	7917,	8632,	8295,	8369,	8395,	8377,	8431,	8342,	12.09,	10.95,	13.88,	0.87,	10.56,	1.17,	1.90,	10.65,	5.23,	10.64,	14.68,	11.64,	13.47,	14.53,	1643,	1657
78,	8202,	8752,	8960,	8325,	7751,	8449,	7942,	8656,	8298,	8369,	8394,	8379,	8431,	8337,	12.09,	10.95,	13.88,	0.87,	10.56,	1.17,	1.90,	10.65,	5.23,	10.64,	14.67,	11.64,	13.47,	14.53,	1644,	1655
79,	8201,	8754,	8958,	8337,	7697,	8458,	7969,	8691,	8322,	8387,	8418,	8385,	8452,	8355,	12.09,	10.95,	13.88,	0.87,	10.56,	1.17,	1.90,	10.65,	5.23,	10.64,	14.67,	11.63,	13.47,	14.53,	1644,	1656
80,	8205,	8761,	8972,	8359,	7715,	8450,	7947,	8711,	8345,	8428,	8431,	8405,	8478,	8387,	12.09,	10.95,	13.88,	0.87,	10.56,	1.17,	1.90,	10.65,	5.23,	10.64,	14.67,	11.63,	13.50,	14.53,	1645,	1656
81,	8221,	8756,	8973,	8356,	7730,	8436,	7918,	8680,	8337,	8430,	8422,	8406,	8475,	8385,	12.09,	10.95,	13.88,	0.87,	10.56,	1.17,	1.90,	10.65,	5.23,	10.64,	14.67,	11.63,	13.50,	14.55,	1645,	1657
82,	8192,	8734,	8954,	8330,	7716,	8434,	7929,	8645,	8320,	8399,	8420,	8385,	8465,	8366,	12.09,	10.95,	13.88,	0.87,	10.56,	1.17,	1.90,	10.65,	5.23,	10.64,	14.65,	11.63,	13.50,	14.55,	1645,	1658
83,	8212,	8733,	8959,	8334,	7726,	8443,	7951,	8669,	8324,	8393,	8425,	8393,	8457,	8368,	12.09,	10.95,	13.88,	0.87,	10.56,	1.17,	1.90,	10.65,	5.23,	10.64,	14.65,	11.66,	13.50,	14.55,	1645,	1659
84,	8210,	8729,	8969,	8352,	7687,	8448,	7939,	8680,	8341,	8403,	8428,	8394,	8459,	8377,	12.09,	10.95,	13.88,	0.87,	10.56,	1.17,	1.90,	10.65,	5.23,	10.64,	14.65,	11.66,	13.50,	14.55,	1646,	1660
85,	8197,	8729,	8971,	8350,	7731,	8448,	7923,	8676,	8346,	8408,	8435,	8405,	8477,	8381,	12.09,	10.95,	13.88,	0.87,	10.56,	1.17,	1.90,	10.65,	5.23,	10.64,	14.65,	11.66,	13.50,	14.56,	1645,	1660
86,	8217,	8747,	8969,	8346,	7731,	8441,	7935,	8684,	8337,	8400,	8437,	8411,	8484,	8373,	12.09,	10.95,	13.88,	0.87,	10.56,	1.17,	1.90,	10.65,	5.23,	10.64,	14.68,	11.66,	13.50,	14.56,	1645,	1662
87,	8189,	8744,	8960,	8341,	7678,	8438,	7952,	8674,	8338,	8390,	8425,	8386,	8467,	8365,	12.09,	10.95,	13.88,	0.87,	10.56,	1.17,	1.90,	10.65,	5.23,	10.64,	14.68,	11.61,	13.50,	14.56,	1644,	1661
88,	8210,	8742,	8969,	8349,	7740,	8449,	7965,	8675,	8347,	8405,	8417,	8394,	8459,	8375,	12.09,	10.95,	13.88,	0.87,	10.56,	1.17,	1.90,	10.65,	5.23,	10.64,	14.68,	11.61,	13.47,	14.56,	1644,	1662
89,	8222,	8726,	8973,	8355,	7735,	8451,	7955,	8685,	8349,	8412,	8419,	8392,	8461,	8378,	12.09,	10.95,	13.88,	0.87,	10.56,	1.17,	1.90,	10.65,	5.23,	10.64,	14.68,	11.61,	13.47,	14.56,	1644,	1661
90,	8194,	8713,	8963,	8346,	7719,	8437,	7937,	8704,	8341,	8408,	8417,	8379,	8454,	8370,	12.09,	10.95,	13.88,	0.87,	10.56,	1.17,	1.90,	10.65,	5.23,	10.64,	14.65,	11.61,	13.47,	14.56,	1644,	1662
91,	8219,	8729,	8961,	8346,	7725,	8436,	7949,	8715,	8336,	8420,	8414,	8390,	8464,	8369,	12.09,	10.95,	13.88,	0.87,	10.56,	1.17,	1.90,	10.65,	5.23,	10.64,	14.65,	11.63,	13.47,	14.56,	1645,	1661
92,	8196,	8714,	8947,	8331,	7702,	8439,	7943,	8679,	8329,	8406,	8410,	8376,	8468,	8361,	12.09,	10.95,	13.88,	0.87,	10.56,	1.17,	1.90,	10.65,	5.23,	10.64,	14.65,	11.63,	13.50,	14.56,	1643,	1661
93,	8187,	8705,	8948,	8304,	7743,	8431,	7915,	8672,	8320,	8381,	8397,	8369,	8447,	8345,	12.09,	10.95,	13.88,	0.87,	10.56,	1.17,	1.90,	10.65,	5.23,	10.64,	14.65,	11.63,	13.50,	14.56,	1644,	1662
94,	8214,	8718,	8958,	8316,	7702,	8432,	7914,	8694,	8322,	8387,	8390,	8374,	8442,	8345,	12.09,	10.95,	13.88,	0.87,	10.56,	1.17,	1.90,	10.65,	5.23,	10.64,	14.67,	11.63,	13.50,	14.56,	1643,	1661
95,	8207,	8708,	8952,	8347,	7692,	8436,	7926,	8687,	8329,	8389,	8401,	8377,	8462,	8358,	12.09,	10.95,	13.88,	0.87,	10.56,	1.17,	1.90,	10.65,	5.23,	10.64,	14.67,	11.64,	13.50,	14.56,	1644,	1663
96,	8232,	8706,	8957,	8348,	7751,	8434,	7933,	8684,	8332,	8387,	8410,	8395,	8472,	8372,	12.09,	10.95,	13.88,	0.87,	10.56,	1.17,	1.90,	10.65,	5.23,	10.64,	14.67,	11.64,	13.47,	14.56,	1643,	1662
97,	8230,	8711,	8966,	8334,	7706,	8432,	7943,	8688,	8338,	8405,	8411,	8392,	8468,	8378,	12.09,	10.95,	13.88,	0.87,	10.56,	1.17,	1.90,	10.65,	5.23,	10.64,	14.67,	11.64,	13.47,	14.56,	1643,	1661
98,	8227,	8718,	8971,	8341,	7716,	8433,	7950,	8705,	8334,	8419,	8410,	8396,	8470,	8376,	12.09,	10.95,	13.88,	0.87,	10.56,	1.17,	1.90,	10.65,	5.23,	10.64,	14.67,	11.64,	13.47,	14.56,	1642,	1660
99,	8245,	8718,	8969,	8350,	7729,	8438,	7959,	8715,	8326,	8407,	8414,	8397,	8469,	8376,	12.09,	10.95,	13.88,	0.87,	10.56,	1.17,	1.90,	10.65,	5.23,	10.64,	14.67,	11.66,	13.47,	14.56,	1643,	1659
100,	8214,	8691,	8966,	8335,	7724,	8439,	7957,	8676,	8319,	8380,	8411,	8376,	8459,	8372,	12.09,	10.95,	13.88,	0.87,	10.56,	1.17,	1.90,	10.65,	5.23,	10.64,	14.67,	11.66,	13.47,	14.56,	1642,	1661
101,	8216,	8680,	8965,	8313,	7743,	8428,	7916,	8646,	8303,	8361,	8393,	8378,	8455,	8355,	12.09,	10.95,	13.88,	0.87,	10.56,	1.17,	1.90,	10.65,	5.23,	10.64,	14.67,	11.66,	13.47,	14.52,	1643,	1661
102,	8218,	8695,	8956,	8327,	7685,	8425,	7884,	8660,	8312,	8370,	8392,	8380,	8461,	8355,	12.09,	10.95,	13.88,	0.87,	10.56,	1.17,	1.90,	10.65,	5.23,	10.64,	14.64,	11.66,	13.47,	14.52,	1642,	1661
103,	8218,	8698,	8963,	8350,	7725,	8438,	7915,	8683,	8323,	8389,	8410,	8386,	8458,	8373,	12.09,	10.95,	13.88,	0.87,	10.56,	1.17,	1.90,	10.65,	5.23,	10.64,	14.64,	11.66,	13.47,	14.52,	1643,	1659
104,	8239,	8691,	8973,	8330,	7755,	8426,	7930,	8677,	8310,	8387,	8411,	8393,	8445,	8366,	12.09,	10.95,	13.88,	0.87,	10.56,	1.17,	1.90,	10.65,	5.23,	10.64,	14.64,	11.66,	13.48,	14.52,	1641,	1659
105,	8212,	8685,	8962,	8324,	7699,	8413,	7908,	8676,	8318,	8393,	8402,	8391,	8460,	8362,	12.09,	10.95,	13.88,	0.87,	10.56,	1.17,	1.90,	10.65,	5.23,	10.64,	14.64,	11.66,	13.48,	14.52,	1642,	1658
106,	8246,	8700,	8986,	8362,	7737,	8439,	7937,	8711,	8337,	8411,	8419,	8416,	8495,	8392,	12.09,	10.95,	13.88,	0.87,	10.56,	1.17,	1.90,	10.65,	5.23,	10.64,	14.65,	11.66,	13.48,	14.52,	1640,	1657
107,	8276,	8715,	9023,	8375,	7735,	8460,	7974,	8709,	8334,	8414,	8446,	8416,	8505,	8402,	12.09,	10.95,	13.88,	0.87,	10.56,	1.17,	1.90,	10.65,	5.23,	10.64,	14.65,	11.64,	13.48,	14.52,	1641,	1659
108,	8237,	8700,	9001,	8352,	7733,	8446,	7957,	8688,	8316,	8405,	8440,	8393,	8482,	8377,	12.09,	10.95,	13.88,	0.87,	10.56,	1.17,	1.90,	10.65,	5.23,	10.64,	14.65,	11.64,	13.47,	14.52,	1641,	1657
109,	8235,	8677,	8962,	8327,	7731,	8426,	7918,	8690,	8303,	8386,	8403,	8389,	8452,	8364,	12.09,	10.95,	13.88,	0.87,	10.56,	1.17,	1.90,	10.65,	5.23,	10.64,	14.65,	11.64,	13.47,	14.55,	1640,	1659
110,	8219,	8663,	8953,	8325,	7685,	8418,	7903,	8671,	8315,	8371,	8393,	8377,	8452,	8366,	12.09,	10.95,	13.88,	0.87,	10.56,	1.17,	1.90,	10.65,	5.23,	10.64,	14.68,	11.64,	13.47,	14.55,	1640,	1658
111,	8222,	8672,	8968,	8336,	7750,	8418,	7933,	8664,	8330,	8387,	8409,	8387,	8466,	8368,	12.09,	10.95,	13.88,	0.87,	10.56,	1.17,	1.90,	10.65,	5.23,	10.64,	14.68,	11.63,	13.47,	14.55,	1640,	1659
112,	8236,	8669,	8972,	8332,	7739,	8425,	7947,	8682,	8319,	8404,	8411,	8394,	8469,	8365,	12.15,	11.27,	14.68,	0.87,	10.25,	1.29,	2.09,	10.95,	5.21,	10.65,	14.67,	11.67,	13.45,	14.56,	1641,	1659
113,	8211,	8656,	8971,	8318,	7693,	8429,	7930,	8686,	8310,	8398,	8413,	8388,	8483,	8373,	12.15,	11.27,	14.68,	0.87,	10.25,	1.29,	2.09,	10.95,	5.21,	10.65,	14.67,	11.67,	13.45,	14.56,	1641,	1658
114,	8234,	8673,	8986,	8326,	7752,	8421,	7920,	8692,	8325,	8397,	8414,	8406,	8492,	8380,	12.15,	11.27,	14.68,	0.87,	10.25,	1.29,	2.09,	10.95,	5.21,	10.65,	14.67,	11.67,	13.45,	14.56,	1641,	1659
115,	8230,	8666,	8978,	8345,	7731,	8415,	7914,	8683,	8329,	8400,	8411,	8392,	8475,	8367,	12.15,	11.27,	14.68,	0.87,	10.25,	1.29,	2.09,	10.95,	5.21,	10.65,	14.67,	11.67,	13.45,	14.56,	1641,	1658
116,	8213,	8644,	8969,	8343,	7727,	8416,	7927,	8674,	8304,	8392,	8411,	8377,	8460,	8357,	12.15,	11.27,	14.68,	0.87,	10.25,	1.29,	2.09,	10.95,	5.21,	10.65,	14.67,	11.67,	13.45,	14.56,	1642,	1658
117,	8242,	8648,	8966,	8325,	7736,	8414,	7941,	8697,	8290,	8390,	8400,	8385,	8452,	8360,	12.15,	11.27,	14.68,	0.87,	10.25,	1.29,	2.09,	10.95,	5.21,	10.65,	14.67,	11.67,	13.45,	14.56,	1641,	1656
118,	8218,	8640,	8949,	8310,	7706,	8410,	7932,	8692,	8310,	8391,	8385,	8370,	8448,	8359,	12.15,	11.27,	14.68,	0.87,	10.25,	1.29,	2.09,	10.95,	5.21,	10.65,	14.67,	11.67,	13.45,	14.56,	1642,	1656
119,	8224,	8643,	8965,	8310,	7737,	8417,	7948,	8682,	8323,	8393,	8397,	8381,	8466,	8363,	12.15,	11.27,	14.68,	0.87,	10.25,	1.29,	2.09,	10.95,	5.21,	10.65,	14.67,	11.67,	13.45,	14.56,	1643,	1654
120,	8253,	8654,	8984,	8318,	7707,	8419,	7953,	8700,	8320,	8409,	8419,	8399,	8490,	8376,	12.15,	11.27,	14.68,	0.87,	10.25,	1.29,	2.09,	10.95,	5.21,	10.65,	14.67,	11.67,	13.45,	14.56,	1641,	1656
121,	8220,	8636,	8962,	8321,	7698,	8403,	7897,	8682,	8313,	8408,	8402,	8376,	8473,	8370,	12.15,	11.27,	14.68,	0.87,	10.25,	1.29,	2.09,	10.95,	5.21,	10.65,	14.67,	11.67,	13.45,	14.56,	1643,	1655
122,	8216,	8623,	8945,	8308,	7743,	8385,	7881,	8636,	8301,	8378,	8371,	8359,	8440,	8348,	12.15,	11.27,	14.68,	0.87,	10.25,	1.29,	2.09,	10.95,	5.21,	10.65,	14.67,	11.67,	13.45,	14.56,	1642,	1656
123,	8211,	8624,	8946,	8299,	7718,	8383,	7916,	8636,	8299,	8366,	8384,	8360,	8449,	8344,	12.15,	11.27,	14.68,	0.87,	10.25,	1.29,	2.09,	10.95,	5.21,	10.65,	14.67,	11.67,	13.45,	14.56,	1644,	1658
124,	8222,	8629,	8956,	8309,	7731,	8390,	7924,	8675,	8307,	8391,	8407,	8380,	8472,	8362,	12.15,	11.27,	14.68,	0.87,	10.25,	1.29,	2.09,	10.95,	5.21,	10.65,	14.67,	11.67,	13.45,	14.56,	1643,	1658
125,	8240,	8620,	8962,	8303,	7724,	8397,	7919,	8682,	8314,	8408,	8401,	8385,	8462,	8363,	12.15,	11.27,	14.68,	0.87,	10.25,	1.29,	2.09,	10.95,	5.21,	10.65,	14.67,	11.67,	13.45,	14.56,	1643,	1660
126,	8214,	8616,	8957,	8300,	7727,	8405,	7936,	8686,	8322,	8410,	8392,	8370,	8451,	8351,	12.15,	11.27,	14.68,	0.87,	10.25,	1.29,	2.09,	10.95,	5.21,	10.65,	14.67,	11.67,	13.45,	14.56,	1643,	1658
127,	8230,	8636,	8950,	8327,	7748,	8409,	7950,	8697,	8313,	8405,	8382,	8372,	8456,	8347,	12.15,	11.27,	14.68,	0.87,	10.25,	1.29,	2.09,	10.95,	5.21,	10.65,	14.67,	11.67,	13.45,	14.56,	1644,	1658
0,	8212,	8614,	8966,	8303,	7727,	8398,	7909,	8695,	8318,	8405,	8401,	8382,	8465,	8355,	12.15,	11.27,	14.68,	0.87,	10.25,	1.29,	2.09,	10.95,	5.21,	10.65,	14.67,	11.67,	13.45,	14.56,	1643,	1658
1,	8246,	8632,	8988,	8318,	7744,	8407,	7926,	8717,	8332,	8427,	8421,	8412,	8480,	8381,	12.15,	11.27,	14.68,	0.87,	10.25,	1.29,	2.09,	10.95,	5.21,	10.65,	14.67,	11.67,	13.45,	14.56,	1644,	1657
2,	8225,	8618,	8983,	8321,	7707,	8400,	7931,	8670,	8309,	8411,	8402,	8396,	8467,	8375,	12.15,	11.27,	14.68,	0.87,	10.25,	1.29,	2.09,	10.95,	5.21,	10.65,	14.67,	11.67,	13.45,	14.56,	1643,	1658
3,	8230,	8602,	8978,	8307,	7734,	8388,	7924,	8648,	8296,	8393,	8373,	8383,	8447,	8354,	12.15,	11.27,	14.68,	0.87,	10.25,	1.29,	2.09,	10.95,	5.21,	10.65,	14.67,	11.67,	13.45,	14.56,	1645,	1658
4,	8240,	8613,	8979,	8321,	7715,	8390,	7928,	8672,	8317,	8408,	8385,	8384,	8458,	8359,	12.15,	11.27,	14.68,	0.87,	10.25,	1.29,	2.09,	10.95,	5.21,	10.65,	14.67,	11.67,	13.45,	14.56,	1644,	1658
5,	8223,	8620,	8969,	8323,	7734,	8383,	7912,	8673,	8305,	8408,	8394,	8380,	8466,	8356,	12.15,	11.27,	14.68,	0.87,	10.25,	1.29,	2.09,	10.95,	5.21,	10.65,	14.67,	11.67,	13.45,	14.56,	1645,	1660
6,	8219,	8608,	8957,	8299,	7729,	8357,	7885,	8650,	8261,	8380,	8364,	8365,	8441,	8332,	12.15,	11.27,	14.68,	0.87,	10.25,	1.29,	2.09,	10.95,	5.21,	10.65,	14.67,	11.67,	13.45,	14.56,	1645,	1660
7,	8194,	8579,	8945,	8285,	7685,	8349,	7884,	8622,	8237,	8346,	8333,	8345,	8406,	8316,	12.15,	11.27,	14.68,	0.87,	10.25,	1.29,	2.09,	10.95,	5.21,	10.65,	14.67,	11.67,	13.45,	14.56,	1645,	1662
8,	8189,	8554,	8922,	8257,	7719,	8360,	7878,	8594,	8209,	8303,	8302,	8331,	8373,	8288,	12.15,	11.27,	14.68,	0.87,	10.25,	1.29,	2.09,	10.95,	5.21,	10.65,	14.67,	11.67,	13.45,	14.56,	1646,	1662
9,	8176,	8542,	8898,	8228,	7705,	8369,	7865,	8583,	8205,	8298,	8275,	8308,	8364,	8263,	12.15,	11.27,	14.68,	0.87,	10.25,	1.29,	2.09,	10.95,	5.21,	10.65,	14.67,	11.67,	13.45,	14.56,	1646,	1661
10,	8200,	8568,	8930,	8264,	7727,	8388,	7919,	8644,	8265,	8365,	8321,	8343,	8406,	8310,	12.15,	11.27,	14.68,	0.87,	10.25,	1.29,	2.09,	10.95,	5.21,	10.65,	14.67,	11.67,	13.45,	14.56,	1645,	1660
11,	8269,	8622,	8987,	8320,	7744,	8403,	7967,	8731,	8324,	8436,	8411,	8410,	8479,	8388,	12.15,	11.27,	14.68,	0.87,	10.25,	1.29,	2.09,	10.95,	5.21,	10.65,	14.67,	11.67,	13.45,	14.56,	1646,	1661
12,	8254,	8634,	9000,	8339,	7709,	8394,	7944,	8711,	8324,	8444,	8440,	8414,	8514,	8404,	12.15,	11.27,	14.68,	0.87,	10.25,	1.29,	2.09,	10.95,	5.21,	10.65,	14.67,	11.67,	13.45,	14.56,	1646,	1661
13,	8251,	8614,	8994,	8328,	7752,	8377,	7915,	8639,	8282,	8411,	8402,	8407,	8483,	8375,	12.15,	11.27,	14.68,	0.87,	10.25,	1.29,	2.09,	10.95,	5.21,	10.65,	14.67,	11.67,	13.45,	14.56,	1645,	1663
14,	8252,	8592,	8982,	8300,	7717,	8366,	7898,	8624,	8264,	8383,	8373,	8390,	8445,	8359,	12.15,	11.27,	14.68,	0.87,	10.25,	1.29,	2.09,	10.95,	5.21,	10.65,	14.67,	11.67,	13.45,	14.56,	1646,	1662
15,	8235,	8594,	8989,	8298,	7712,	8368,	7911,	8667,	8293,	8407,	8393,	8395,	8468,	8378,	12.15,	11.27,	14.68,	0.87,	10.25,	1.29,	2.09,	10.95,	5.21,	10.65,	14.67,	11.67,	13.45,	14.56,	1645,	1661
16,	8279,	8609,	9012,	8319,	7755,	8379,	7936,	8689,	8305,	8442,	8416,	8428,	8493,	8394,	12.15,	11.27,	14.68,	0.87,	10.25,	1.29,	2.09,	10.95,	5.21,	10.65,	14.67,	11.67,	13.45,	14.56,	1646,	1659
17,	8260,	8594,	8989,	8319,	7696,	8378,	7923,	8655,	8276,	8422,	8402,	8396,	8469,	8375,	12.15,	11.27,	14.68,	0.87,	10.25,	1.29,	2.09,	10.95,	5.21,	10.65,	14.67,	11.67,	13.45,	14.56,	1646,	1657
18,	8247,	8607,	8972,	8324,	7731,	8368,	7898,	8659,	8265,	8405,	8385,	8385,	8453,	8365,	12.15,	11.27,	14.68,	0.87,	10.25,	1.29,	2.09,	10.95,	5.21,	10.65,	14.67,	11.67,	13.45,	14.56,	1646,	1658
19,	8284,	8622,	8984,	8323,	7747,	8357,	7889,	8672,	8277,	8413,	8395,	8412,	8475,	8371,	12.15,	11.27,	14.68,	0.87,	10.25,	1.29,	2.09,	10.95,	5.21,	10.65,	14.67,	11.67,	13.45,	14.56,	1646,	1658
20,	8254,	8591,	8978,	8293,	7711,	8347,	7892,	8639,	8264,	8403,	8405,	8402,	8482,	8364,	12.15,	11.27,	14.68,	0.87,	10.25,	1.29,	2.09,	10.95,	5.21,	10.65,	14.67,	11.67,	13.45,	14.56,	1645,	1659
21,	8274,	8598,	8987,	8299,	7743,	8350,	7904,	8641,	8251,	8397,	8399,	8402,	8471,	8366,	12.15,	11.27,	14.68,	0.87,	10.25,	1.29,	2.09,	10.95,	5.21,	10.65,	14.67,	11.67,	13.45,	14.56,	1646,	1659
22,	8294,	8613,	8999,	8329,	7715,	8354,	7899,	8656,	8266,	8411,	8395,	8405,	8474,	8380,	12.15,	11.27,	14.68,	0.87,	10.25,	1.29,	2.09,	10.95,	5.21,	10.65,	14.67,	11.67,	13.45,	14.56,	1645,	1661
23,	8265,	8582,	8980,	8312,	7725,	8341,	7893,	8647,	8267,	8411,	8383,	8395,	8471,	8371,	12.15,	11.27,	14.68,	0.87,	10.25,	1.29,	2.09,	10.95,	5.21,	10.65,	14.67,	11.67,	13.45,	14.56,	1646,	1661
24,	8280,	8581,	8970,	8292,	7722,	8337,	7913,	8674,	8263,	8415,	8385,	8393,	8469,	8366,	12.15,	11.27,	14.68,	0.87,	10.25,	1.29,	2.09,	10.95,	5.21,	10.65,	14.67,	11.67,	13.45,	14.56,	1645,	1659
25,	8266,	8595,	8966,	8305,	7680,	8345,	7928,	8681,	8261,	8418,	8400,	8378,	8480,	8379,	12.15,	11.27,	14.68,	0.87,	10.25,	1.29,	2.09,	10.95,	5.21,	10.65,	14.67,	11.67,	13.45,	14.56,	1646,	1658
26,	8260,	8588,	8955,	8299,	7741,	8343,	7926,	8630,	8240,	8390,	8374,	8367,	8464,	8361,	12.15,	11.27,	14.68,	0.87,	10.25,	1.29,	2.09,	10.95,	5.21,	10.65,	14.67,	11.67,	13.45,	14.56,	1646,	1659
27,	8261,	8577,	8942,	8277,	7733,	8329,	7886,	8605,	8231,	8376,	8336,	8354,	8436,	8332,	12.15,	11.27,	14.68,	0.87,	10.25,	1.29,	2.09,	10.95,	5.21,	10.65,	14.67,	11.67,	13.45,	14.56,	1647,	1658
28,	8246,	8571,	8951,	8286,	7710,	8313,	7845,	8615,	8221,	8380,	8344,	8358,	8429,	8335,	12.15,	11.27,	14.68,	0.87,	10.25,	1.29,	2.09,	10.95,	5.21,	10.65,	14.67,	11.67,	13.45,	14.56,	1647,	1660
29,	8275,	8581,	8963,	8307,	7728,	8307,	7850,	8596,	8191,	8359,	8358,	8367,	8432,	8339,	12.15,	11.27,	14.68,	0.87,	10.25,	1.29,	2.09,	10.95,	5.21,	10.65,	14.67,	11.67,	13.45,	14.56,	1647,	1658
30,	8249,	8573,	8934,	8287,	7695,	8316,	7864,	8575,	8193,	8337,	8337,	8333,	8423,	8320,	12.15,	11.27,	14.68,	0.87,	10.25,	1.29,	2.09,	10.95,	5.21,	10.65,	14.67,	11.67,	13.45,	14.56,	1647,	1660
31,	8227,	8563,	8918,	8248,	7724,	8322,	7858,	8598,	8203,	8350,	8319,	8322,	8414,	8309,	12.15,	11.27,	14.68,	0.87,	10.25,	1.29,	2.09,	10.95,	5.21,	10.65,	14.67,	11.67,	13.45,	14.56,	1647,	1659
32,	8235,	8560,	8908,	8236,	7699,	8315,	7843,	8590,	8184,	8355,	8317,	8322,	8404,	8300,	12.15,	11.27,	14.68,	0.87,	10.25,	1.29,	2.09,	10.95,	5.21,	10.65,	14.67,	11.67,	13.45,	14.56,	1646,	1659
33,	8204,	8548,	8888,	8249,	7689,	8313,	7847,	8563,	8175,	8335,	8319,	8305,	8397,	8294,	12.15,	11.27,	14.68,	0.87,	10.25,	1.29,	2.09,	10.95,	5.21,	10.65,	14.67,	11.67,	13.45,	14.56,	1647,	1658
34,	8228,	8564,	8897,	8256,	7757,	8318,	7870,	8590,	8182,	8340,	8324,	8316,	8410,	8314,	12.15,	11.27,	14.68,	0.87,	10.25,	1.29,	2.09,	10.95,	5.21,	10.65,	14.67,	11.67,	13.45,	14.56,	1646,	1657
35,	8227,	8566,	8890,	8250,	7710,	8301,	7867,	8604,	8179,	8358,	8315,	8305,	8420,	8322,	12.15,	11.27,	14.68,	0.87,	10.25,	1.29,	2.09,	10.95,	5.21,	10.65,	14.67,	11.67,	13.45,	14.56,	1646,	1659
36,	8195,	8539,	8861,	8241,	7705,	8279,	7857,	8594,	8176,	8359,	8296,	8286,	8401,	8309,	12.15,	11.27,	14.68,	0.87,	10.25,	1.29,	2.09,	10.95,	5.21,	10.65,	14.67,	11.67,	13.45,	14.56,	1646,	1657
