=====================
  Training Session  
=====================
Name:		Osama Mohamed
Session:	Session_2014_05_10_71422
Date:		2014-05-10 19-51-00
Comments:	dummy
Trials:		4
TrialsPerClass:	2
BlankTime:	2
SteadyTime:	1
TrainingTime:	4
Triggers:	12753, 13642, 14531, 15419
ClassesTypes:	2, 1, 1, 2
ClassesNames:	RIGHT, LEFT

RawData:
Count,	F3,	FC5,	AF3,	F7,	T7,	P7,	O1,	O2,	P8,	T8,	F8,	AF4,	FC6,	F4,	Q_F3,	Q_FC5,	Q_AF3,	Q_F7,	Q_T7,	Q_P7,	Q_O1,	Q_O2,	Q_P8,	Q_T8,	Q_F8,	Q_AF4,	Q_FC6,	Q_F4,	GyroX,	GyroY
46,	8175,	7830,	8029,	8388,	8875,	8539,	8506,	8239,	8368,	8331,	8731,	8674,	8365,	8936,	0.00,	0.00,	0.00,	0.00,	0.00,	0.00,	0.00,	0.00,	0.00,	0.00,	0.00,	0.00,	0.00,	0.00,	1691,	1678
47,	8225,	7867,	8079,	8433,	8883,	8552,	8526,	8266,	8385,	8359,	8789,	8734,	8425,	8984,	0.00,	0.00,	0.00,	0.00,	0.00,	0.00,	0.00,	0.00,	0.00,	0.00,	0.00,	0.00,	0.00,	0.00,	1689,	1674
48,	8264,	7900,	8109,	8460,	8923,	8588,	8562,	8328,	8432,	8405,	8822,	8768,	8465,	9028,	0.00,	0.00,	0.00,	0.00,	0.00,	0.00,	0.00,	0.00,	0.00,	0.00,	0.00,	0.00,	0.00,	0.00,	1688,	1670
49,	8217,	7870,	8065,	8422,	8877,	8563,	8522,	8279,	8375,	8364,	8767,	8719,	8404,	8984,	0.00,	0.00,	0.00,	0.00,	0.00,	0.00,	0.00,	0.00,	0.00,	0.00,	0.00,	0.00,	0.00,	0.00,	1688,	1669
50,	8202,	7855,	8056,	8418,	8853,	8539,	8497,	8236,	8345,	8333,	8757,	8704,	8385,	8963,	0.00,	0.00,	0.00,	0.00,	0.00,	0.00,	0.00,	0.00,	0.00,	0.00,	0.00,	0.00,	0.00,	0.00,	1687,	1668
51,	8242,	7877,	8096,	8445,	8917,	8559,	8523,	8272,	8401,	8384,	8794,	8740,	8431,	9004,	0.00,	0.00,	0.00,	0.00,	0.00,	0.00,	0.00,	0.00,	0.00,	0.00,	0.00,	0.00,	0.00,	0.00,	1688,	1668
52,	8255,	7887,	8105,	8447,	8937,	8571,	8535,	8299,	8426,	8399,	8787,	8754,	8443,	9023,	0.00,	0.00,	0.00,	0.00,	0.00,	0.00,	0.00,	0.00,	0.00,	0.00,	0.00,	0.00,	0.00,	0.00,	1686,	1665
53,	8268,	7895,	8112,	8459,	8923,	8584,	8558,	8332,	8436,	8375,	8804,	8773,	8450,	9030,	0.00,	0.00,	0.00,	0.00,	0.00,	0.00,	0.00,	0.00,	0.00,	0.00,	0.00,	0.00,	0.00,	0.00,	1686,	1662
54,	8286,	7902,	8129,	8476,	8936,	8594,	8577,	8349,	8449,	8392,	8842,	8796,	8467,	9044,	0.00,	0.00,	0.00,	0.00,	0.00,	0.00,	0.00,	0.00,	0.00,	0.00,	0.00,	0.00,	0.00,	0.00,	1686,	1656
55,	8284,	7900,	8128,	8472,	8916,	8574,	8559,	8324,	8433,	8414,	8830,	8791,	8457,	9046,	0.00,	0.00,	0.00,	0.00,	0.00,	0.00,	0.00,	0.00,	0.00,	0.00,	0.00,	0.00,	0.00,	0.00,	1684,	1655
56,	8281,	7906,	8131,	8471,	8894,	8573,	8560,	8334,	8447,	8415,	8819,	8795,	8462,	9050,	0.00,	0.00,	0.00,	0.00,	0.00,	0.00,	0.00,	0.00,	0.00,	0.00,	0.00,	0.00,	0.00,	0.00,	1684,	1655
57,	8279,	7903,	8133,	8464,	8928,	8589,	8567,	8349,	8463,	8412,	8817,	8788,	8476,	9044,	0.00,	0.00,	0.00,	0.00,	0.00,	0.00,	0.00,	0.00,	0.00,	0.00,	0.00,	0.00,	0.00,	0.00,	1680,	1660
58,	8257,	7880,	8109,	8442,	8933,	8575,	8551,	8320,	8428,	8396,	8801,	8756,	8460,	9022,	0.00,	0.00,	0.00,	0.00,	0.00,	0.00,	0.00,	0.00,	0.00,	0.00,	0.00,	0.00,	0.00,	0.00,	1679,	1665
59,	8231,	7872,	8090,	8431,	8897,	8568,	8545,	8303,	8416,	8382,	8807,	8754,	8449,	9013,	0.00,	0.00,	0.00,	0.00,	0.00,	0.00,	0.00,	0.00,	0.00,	0.00,	0.00,	0.00,	0.00,	0.00,	1675,	1665
60,	8222,	7876,	8084,	8425,	8902,	8579,	8551,	8317,	8435,	8390,	8818,	8752,	8451,	9009,	0.00,	0.00,	0.00,	0.00,	0.00,	0.00,	0.00,	0.00,	0.00,	0.00,	0.00,	0.00,	0.00,	0.00,	1671,	1666
61,	8214,	7858,	8065,	8400,	8898,	8559,	8534,	8301,	8414,	8387,	8789,	8712,	8427,	8987,	0.00,	0.00,	0.00,	0.00,	0.00,	0.00,	0.00,	0.00,	0.00,	0.00,	0.00,	0.00,	0.00,	0.00,	1667,	1662
62,	8227,	7859,	8075,	8403,	8870,	8558,	8544,	8311,	8421,	8390,	8800,	8723,	8434,	8999,	0.00,	0.00,	0.00,	0.00,	0.00,	0.00,	0.00,	0.00,	0.00,	0.00,	0.00,	0.00,	0.00,	0.00,	1661,	1657
63,	8258,	7898,	8112,	8447,	8906,	8603,	8584,	8375,	8490,	8427,	8849,	8780,	8478,	9039,	0.00,	0.00,	0.00,	0.00,	0.00,	0.00,	0.00,	0.00,	0.00,	0.00,	0.00,	0.00,	0.00,	0.00,	1656,	1655
64,	8262,	7911,	8115,	8457,	8956,	8621,	8586,	8377,	8505,	8432,	8842,	8782,	8481,	9040,	14.43,	0.00,	0.00,	0.00,	0.00,	0.00,	0.00,	0.00,	0.00,	0.00,	0.00,	0.00,	0.00,	0.00,	1651,	1658
65,	8242,	7888,	8094,	8425,	8953,	8603,	8567,	8327,	8459,	8401,	8810,	8745,	8453,	9015,	14.43,	10.36,	0.00,	0.00,	0.00,	0.00,	0.00,	0.00,	0.00,	0.00,	0.00,	0.00,	0.00,	0.00,	1647,	1661
66,	8226,	7872,	8078,	8407,	8916,	8577,	8554,	8307,	8425,	8381,	8793,	8729,	8431,	8996,	14.43,	10.36,	12.12,	0.00,	0.00,	0.00,	0.00,	0.00,	0.00,	0.00,	0.00,	0.00,	0.00,	0.00,	1642,	1669
67,	8217,	7872,	8065,	8408,	8893,	8559,	8539,	8320,	8421,	8369,	8784,	8724,	8417,	8981,	14.43,	10.36,	12.12,	0.40,	0.00,	0.00,	0.00,	0.00,	0.00,	0.00,	0.00,	0.00,	0.00,	0.00,	1641,	1672
68,	8214,	7879,	8068,	8412,	8909,	8576,	8539,	8324,	8436,	8367,	8796,	8720,	8432,	8982,	14.43,	10.36,	12.12,	0.40,	13.67,	0.00,	0.00,	0.00,	0.00,	0.00,	0.00,	0.00,	0.00,	0.00,	1637,	1673
69,	8243,	7909,	8101,	8441,	8940,	8613,	8575,	8344,	8466,	8410,	8835,	8747,	8469,	9023,	14.43,	10.36,	12.12,	0.40,	13.67,	12.19,	0.00,	0.00,	0.00,	0.00,	0.00,	0.00,	0.00,	0.00,	1636,	1673
70,	8257,	7921,	8109,	8452,	8936,	8613,	8579,	8359,	8479,	8434,	8838,	8765,	8467,	9036,	14.43,	10.36,	12.12,	0.40,	13.67,	12.19,	11.07,	0.00,	0.00,	0.00,	0.00,	0.00,	0.00,	0.00,	1635,	1671
71,	8223,	7886,	8079,	8428,	8926,	8590,	8538,	8326,	8448,	8390,	8795,	8748,	8436,	8995,	14.43,	10.36,	12.12,	0.40,	13.67,	12.19,	11.07,	11.82,	0.00,	0.00,	0.00,	0.00,	0.00,	0.00,	1635,	1672
72,	8221,	7879,	8079,	8429,	8960,	8600,	8540,	8309,	8434,	8377,	8798,	8745,	8449,	8996,	14.43,	10.36,	12.12,	0.40,	13.67,	12.19,	11.07,	11.82,	11.56,	0.00,	0.00,	0.00,	0.00,	0.00,	1635,	1675
73,	8248,	7903,	8105,	8441,	8963,	8610,	8568,	8328,	8458,	8417,	8847,	8764,	8472,	9025,	14.43,	10.36,	12.12,	0.40,	13.67,	12.19,	11.07,	11.82,	11.56,	10.73,	0.00,	0.00,	0.00,	0.00,	1635,	1680
74,	8247,	7912,	8115,	8449,	8917,	8602,	8567,	8345,	8481,	8433,	8866,	8767,	8465,	9020,	14.43,	10.36,	12.12,	0.40,	13.67,	12.19,	11.07,	11.82,	11.56,	10.73,	12.31,	0.00,	0.00,	0.00,	1636,	1682
75,	8243,	7912,	8118,	8476,	8915,	8611,	8560,	8341,	8483,	8421,	8839,	8754,	8456,	9011,	14.43,	10.36,	12.12,	0.40,	13.67,	12.19,	11.07,	11.82,	11.56,	10.73,	12.31,	13.33,	0.00,	0.00,	1638,	1685
76,	8256,	7919,	8122,	8491,	8938,	8623,	8562,	8331,	8463,	8412,	8825,	8757,	8458,	9018,	14.43,	10.36,	12.12,	0.40,	13.67,	12.19,	11.07,	11.82,	11.56,	10.73,	12.31,	13.33,	12.77,	0.00,	1640,	1686
77,	8256,	7914,	8119,	8473,	8925,	8613,	8567,	8328,	8439,	8393,	8834,	8770,	8458,	9016,	14.43,	10.36,	12.12,	0.40,	13.67,	12.19,	11.07,	11.82,	11.56,	10.73,	12.31,	13.33,	12.77,	10.47,	1643,	1690
78,	8256,	7914,	8125,	8481,	8927,	8602,	8579,	8332,	8438,	8384,	8836,	8779,	8464,	9022,	14.43,	10.36,	12.12,	0.40,	13.67,	12.19,	11.07,	11.82,	11.56,	10.73,	12.31,	13.33,	12.77,	10.47,	1648,	1693
79,	8254,	7920,	8125,	8496,	8954,	8606,	8583,	8326,	8448,	8403,	8826,	8776,	8461,	9024,	14.43,	10.36,	12.12,	0.40,	13.67,	12.19,	11.07,	11.82,	11.56,	10.73,	12.31,	13.38,	12.77,	10.47,	1650,	1696
80,	8230,	7901,	8101,	8474,	8932,	8600,	8569,	8321,	8443,	8402,	8810,	8756,	8439,	9000,	14.43,	10.36,	12.12,	0.40,	13.67,	12.19,	11.07,	11.82,	11.56,	10.73,	12.31,	13.38,	12.76,	10.47,	1656,	1699
81,	8209,	7876,	8092,	8454,	8878,	8579,	8551,	8324,	8427,	8375,	8796,	8728,	8420,	8980,	14.43,	10.36,	12.12,	0.40,	13.67,	12.19,	11.07,	11.82,	11.56,	10.73,	12.31,	13.38,	12.76,	10.47,	1661,	1700
82,	8217,	7881,	8110,	8469,	8889,	8577,	8541,	8307,	8425,	8375,	8801,	8727,	8425,	8988,	14.43,	10.36,	12.12,	0.40,	13.67,	12.19,	11.07,	11.82,	11.56,	10.73,	12.28,	13.38,	12.76,	10.47,	1666,	1701
83,	8251,	7919,	8138,	8509,	8937,	8604,	8551,	8302,	8440,	8404,	8831,	8773,	8454,	9016,	14.43,	10.36,	12.12,	0.40,	13.67,	12.19,	11.07,	11.82,	11.56,	10.73,	12.28,	13.38,	12.76,	10.47,	1672,	1699
84,	8254,	7931,	8146,	8523,	8932,	8605,	8558,	8317,	8437,	8398,	8840,	8793,	8464,	9028,	14.43,	10.36,	12.12,	0.40,	13.67,	12.19,	11.07,	11.82,	11.56,	10.73,	12.28,	13.38,	12.77,	10.47,	1676,	1697
85,	8209,	7890,	8118,	8476,	8904,	8572,	8536,	8295,	8405,	8356,	8800,	8749,	8428,	8991,	14.43,	10.36,	12.12,	0.40,	13.67,	12.19,	11.07,	11.82,	11.56,	10.73,	12.28,	13.38,	12.77,	10.43,	1681,	1693
86,	8176,	7854,	8085,	8435,	8906,	8556,	8514,	8249,	8379,	8334,	8761,	8714,	8384,	8950,	14.43,	10.36,	12.12,	0.40,	13.67,	12.19,	11.07,	11.82,	11.56,	10.73,	12.30,	13.38,	12.77,	10.43,	1684,	1689
87,	8196,	7873,	8092,	8456,	8911,	8569,	8529,	8262,	8387,	8348,	8769,	8732,	8392,	8969,	14.43,	10.36,	12.12,	0.40,	13.67,	12.19,	11.07,	11.82,	11.56,	10.73,	12.30,	13.35,	12.77,	10.43,	1689,	1686
88,	8236,	7906,	8126,	8496,	8904,	8588,	8558,	8318,	8422,	8376,	8816,	8763,	8438,	9013,	14.43,	10.36,	12.12,	0.40,	13.67,	12.19,	11.07,	11.82,	11.56,	10.73,	12.30,	13.35,	12.77,	10.43,	1692,	1688
89,	8248,	7912,	8135,	8506,	8926,	8596,	8563,	8331,	8447,	8391,	8832,	8777,	8462,	9019,	14.43,	10.36,	12.12,	0.40,	13.67,	12.19,	11.07,	11.82,	11.56,	10.73,	12.30,	13.35,	12.77,	10.47,	1696,	1690
90,	8226,	7894,	8111,	8489,	8943,	8586,	8550,	8305,	8433,	8380,	8795,	8753,	8435,	8990,	14.43,	10.36,	12.12,	0.40,	13.67,	12.19,	11.07,	11.82,	11.56,	10.73,	12.30,	13.35,	12.77,	10.47,	1698,	1694
91,	8204,	7886,	8088,	8466,	8915,	8569,	8539,	8297,	8415,	8362,	8771,	8726,	8408,	8974,	14.43,	10.36,	12.12,	0.40,	13.67,	12.19,	11.07,	11.82,	11.56,	10.73,	12.30,	13.38,	12.77,	10.47,	1702,	1696
92,	8213,	7905,	8104,	8470,	8916,	8569,	8536,	8301,	8412,	8361,	8800,	8746,	8423,	8987,	14.43,	10.36,	12.12,	0.40,	13.67,	12.19,	11.07,	11.82,	11.56,	10.73,	12.30,	13.38,	12.74,	10.47,	1703,	1691
93,	8219,	7907,	8121,	8488,	8952,	8570,	8525,	8278,	8396,	8361,	8811,	8760,	8431,	8992,	14.43,	10.36,	12.12,	0.40,	13.67,	12.19,	11.07,	11.82,	11.56,	10.73,	12.30,	13.38,	12.74,	10.44,	1705,	1686
94,	8223,	7895,	8142,	8490,	8962,	8574,	8526,	8276,	8393,	8368,	8796,	8750,	8427,	8994,	14.43,	10.36,	12.12,	0.40,	13.67,	12.19,	11.07,	11.82,	11.56,	10.73,	12.30,	13.38,	12.74,	10.44,	1707,	1679
95,	8253,	7920,	8228,	8503,	8952,	8599,	8552,	8309,	8424,	8399,	8812,	8777,	8452,	9022,	14.43,	10.36,	12.12,	0.40,	13.67,	12.19,	11.07,	11.82,	11.56,	10.73,	12.30,	13.33,	12.74,	10.44,	1708,	1678
96,	8260,	7935,	8307,	8511,	8944,	8599,	8563,	8312,	8435,	8398,	8824,	8794,	8463,	9028,	14.43,	10.36,	12.12,	0.40,	13.67,	12.19,	11.07,	11.82,	11.56,	10.73,	12.30,	13.33,	12.79,	10.44,	1709,	1678
97,	8225,	7898,	8297,	8482,	8929,	8571,	8550,	8295,	8419,	8364,	8798,	8752,	8435,	8990,	14.43,	10.36,	12.12,	0.40,	13.67,	12.19,	11.07,	11.82,	11.56,	10.73,	12.30,	13.33,	12.79,	10.46,	1709,	1681
98,	8207,	7882,	8275,	8461,	8923,	8576,	8551,	8303,	8414,	8365,	8785,	8736,	8420,	8976,	14.43,	10.36,	12.12,	0.40,	13.67,	12.19,	11.07,	11.82,	11.56,	10.73,	12.31,	13.33,	12.79,	10.46,	1709,	1684
99,	8226,	7899,	8291,	8476,	8940,	8597,	8564,	8309,	8418,	8387,	8801,	8764,	8435,	8995,	14.43,	10.36,	12.12,	0.40,	13.67,	12.19,	11.07,	11.82,	11.56,	10.73,	12.31,	13.33,	12.79,	10.46,	1708,	1684
100,	8224,	7896,	8286,	8478,	8931,	8579,	8552,	8299,	8421,	8383,	8794,	8758,	8435,	8997,	14.43,	10.36,	12.12,	0.40,	13.67,	12.19,	11.07,	11.82,	11.56,	10.73,	12.31,	13.33,	12.74,	10.46,	1708,	1684
101,	8215,	7897,	8272,	8472,	8927,	8571,	8546,	8309,	8420,	8378,	8781,	8747,	8429,	8994,	14.43,	10.36,	12.12,	0.40,	13.67,	12.19,	11.07,	11.82,	11.56,	10.73,	12.31,	13.33,	12.74,	10.46,	1707,	1682
102,	8246,	7925,	8300,	8502,	8967,	8613,	8569,	8325,	8422,	8397,	8804,	8781,	8450,	9017,	14.43,	10.36,	12.12,	0.40,	13.67,	12.19,	11.07,	11.82,	11.56,	10.73,	12.28,	13.33,	12.74,	10.46,	1706,	1684
103,	8255,	7925,	8310,	8507,	8975,	8613,	8568,	8311,	8421,	8391,	8819,	8800,	8456,	9022,	14.43,	10.36,	12.12,	0.40,	13.67,	12.19,	11.07,	11.82,	11.56,	10.73,	12.28,	13.33,	12.74,	10.46,	1705,	1687
104,	8222,	7901,	8293,	8478,	8946,	8573,	8545,	8302,	8415,	8372,	8816,	8783,	8442,	8998,	14.43,	10.36,	12.12,	0.40,	13.67,	12.19,	11.07,	11.82,	11.56,	10.73,	12.28,	13.33,	12.76,	10.46,	1704,	1690
105,	8218,	7910,	8301,	8482,	8947,	8584,	8554,	8326,	8425,	8386,	8818,	8786,	8449,	9000,	14.43,	10.36,	12.12,	0.40,	13.67,	12.19,	11.07,	11.82,	11.56,	10.73,	12.28,	13.33,	12.76,	10.46,	1703,	1694
106,	8234,	7917,	8304,	8490,	8955,	8603,	8564,	8323,	8417,	8392,	8810,	8786,	8455,	9012,	14.43,	10.36,	12.12,	0.40,	13.67,	12.19,	11.07,	11.82,	11.56,	10.73,	12.27,	13.33,	12.76,	10.46,	1703,	1695
107,	8224,	7903,	8286,	8475,	8933,	8586,	8553,	8296,	8395,	8372,	8794,	8766,	8441,	9000,	14.43,	10.36,	12.12,	0.40,	13.67,	12.19,	11.07,	11.82,	11.56,	10.73,	12.27,	13.35,	12.76,	10.46,	1702,	1696
108,	8224,	7909,	8287,	8479,	8926,	8582,	8555,	8307,	8404,	8377,	8794,	8766,	8438,	8996,	14.43,	10.36,	12.12,	0.40,	13.67,	12.19,	11.07,	11.82,	11.56,	10.73,	12.27,	13.35,	12.79,	10.46,	1703,	1695
109,	8237,	7921,	8286,	8493,	8947,	8596,	8563,	8314,	8417,	8391,	8794,	8768,	8442,	9005,	14.43,	10.36,	12.12,	0.40,	13.67,	12.19,	11.07,	11.82,	11.56,	10.73,	12.27,	13.35,	12.79,	10.47,	1702,	1695
110,	8223,	7908,	8268,	8478,	8950,	8593,	8560,	8301,	8404,	8367,	8781,	8760,	8427,	8999,	14.43,	10.36,	12.12,	0.40,	13.67,	12.19,	11.07,	11.82,	11.56,	10.73,	12.27,	13.35,	12.79,	10.47,	1702,	1697
111,	8222,	7909,	8276,	8478,	8958,	8604,	8568,	8324,	8414,	8375,	8788,	8776,	8432,	9007,	14.43,	10.36,	12.12,	0.40,	13.67,	12.19,	11.07,	11.82,	11.56,	10.73,	12.27,	13.33,	12.79,	10.47,	1702,	1699
112,	8233,	7918,	8282,	8482,	8956,	8615,	8573,	8341,	8443,	8401,	8797,	8782,	8448,	9020,	14.43,	10.36,	12.12,	0.40,	13.67,	12.19,	11.07,	11.82,	11.56,	10.73,	12.27,	13.33,	12.76,	10.47,	1701,	1703
113,	8210,	7890,	8257,	8453,	8915,	8578,	8552,	8305,	8413,	8373,	8783,	8758,	8430,	8997,	14.43,	10.36,	12.12,	0.40,	13.67,	12.19,	11.07,	11.82,	11.56,	10.73,	12.27,	13.33,	12.76,	10.43,	1703,	1704
114,	8203,	7882,	8261,	8453,	8897,	8561,	8551,	8299,	8379,	8361,	8789,	8771,	8428,	8992,	14.43,	10.36,	12.12,	0.40,	13.67,	12.19,	11.07,	11.82,	11.56,	10.73,	12.31,	13.33,	12.76,	10.43,	1701,	1707
115,	8227,	7908,	8282,	8476,	8920,	8588,	8565,	8334,	8394,	8387,	8811,	8804,	8447,	9021,	14.43,	10.36,	12.12,	0.40,	13.67,	12.19,	11.07,	11.82,	11.56,	10.73,	12.31,	13.35,	12.76,	10.43,	1702,	1707
116,	8214,	7892,	8261,	8455,	8914,	8583,	8551,	8311,	8389,	8367,	8791,	8777,	8424,	9011,	14.43,	10.36,	12.12,	0.40,	13.67,	12.19,	11.07,	11.82,	11.56,	10.73,	12.31,	13.35,	12.79,	10.43,	1701,	1706
117,	8180,	7857,	8224,	8422,	8875,	8559,	8528,	8262,	8351,	8326,	8747,	8726,	8388,	8972,	14.43,	10.36,	12.12,	0.40,	13.67,	12.19,	11.07,	11.82,	11.56,	10.73,	12.31,	13.35,	12.79,	10.43,	1702,	1707
118,	8187,	7874,	8232,	8431,	8877,	8569,	8541,	8277,	8361,	8337,	8743,	8732,	8399,	8974,	14.43,	10.36,	12.12,	0.40,	13.67,	12.19,	11.07,	11.82,	11.56,	10.73,	12.28,	13.35,	12.79,	10.43,	1702,	1707
119,	8217,	7903,	8269,	8462,	8922,	8593,	8568,	8324,	8411,	8373,	8778,	8787,	8437,	9005,	14.43,	10.36,	12.12,	0.40,	13.67,	12.19,	11.07,	11.82,	11.56,	10.73,	12.28,	13.33,	12.79,	10.43,	1704,	1708
120,	8244,	7910,	8295,	8494,	8966,	8604,	8581,	8338,	8430,	8393,	8833,	8833,	8467,	9039,	14.43,	10.36,	12.12,	0.40,	13.67,	12.19,	11.07,	11.82,	11.56,	10.73,	12.28,	13.33,	12.76,	10.43,	1703,	1707
121,	8267,	7925,	8304,	8515,	8971,	8613,	8591,	8336,	8425,	8409,	8878,	8846,	8485,	9059,	14.43,	10.36,	12.12,	0.40,	13.67,	12.19,	11.07,	11.82,	11.56,	10.73,	12.28,	13.33,	12.76,	10.47,	1704,	1707
122,	8263,	7930,	8294,	8501,	8937,	8604,	8586,	8334,	8426,	8421,	8873,	8831,	8478,	9050,	14.43,	10.36,	12.12,	0.40,	13.67,	12.19,	11.07,	11.82,	11.56,	10.73,	12.30,	13.33,	12.76,	10.47,	1705,	1705
123,	8250,	7918,	8286,	8490,	8923,	8594,	8579,	8341,	8432,	8422,	8857,	8821,	8467,	9037,	14.43,	10.36,	12.12,	0.40,	13.67,	12.19,	11.07,	11.82,	11.56,	10.73,	12.30,	13.38,	12.76,	10.47,	1705,	1704
124,	8246,	7911,	8283,	8488,	8928,	8595,	8579,	8345,	8427,	8405,	8863,	8826,	8465,	9036,	14.43,	10.36,	12.12,	0.40,	13.67,	12.19,	11.07,	11.82,	11.56,	10.73,	12.30,	13.38,	12.79,	10.47,	1707,	1701
125,	8231,	7901,	8267,	8476,	8919,	8584,	8562,	8307,	8397,	8392,	8857,	8805,	8450,	9024,	14.43,	10.36,	12.12,	0.40,	13.67,	12.19,	11.07,	11.82,	11.56,	10.73,	12.30,	13.38,	12.79,	10.46,	1706,	1702
126,	8216,	7896,	8259,	8471,	8905,	8569,	8544,	8268,	8374,	8400,	8837,	8790,	8435,	9009,	14.43,	10.36,	12.12,	0.40,	13.67,	12.19,	11.07,	11.82,	11.56,	10.73,	12.27,	13.38,	12.79,	10.46,	1708,	1702
127,	8224,	7905,	8269,	8478,	8919,	8572,	8556,	8298,	8398,	8411,	8850,	8815,	8450,	9018,	14.43,	10.36,	12.12,	0.40,	13.67,	12.19,	11.07,	11.82,	11.56,	10.73,	12.27,	13.33,	12.79,	10.46,	1708,	1703
0,	8236,	7903,	8264,	8479,	8947,	8579,	8569,	8325,	8410,	8396,	8856,	8814,	8462,	9040,	14.41,	10.36,	12.12,	0.40,	13.67,	12.19,	11.07,	11.82,	11.56,	10.73,	12.27,	13.33,	12.79,	10.46,	1709,	1702
1,	8226,	7893,	8253,	8467,	8916,	8571,	8559,	8316,	8396,	8397,	8851,	8814,	8446,	9024,	14.41,	10.36,	12.12,	0.40,	13.67,	12.19,	11.07,	11.82,	11.56,	10.73,	12.27,	13.33,	12.79,	10.46,	1709,	1701
2,	8219,	7889,	8242,	8463,	8900,	8563,	8553,	8327,	8403,	8405,	8845,	8813,	8442,	9019,	14.41,	10.36,	12.10,	0.40,	13.67,	12.19,	11.07,	11.82,	11.56,	10.73,	12.27,	13.33,	12.79,	10.46,	1709,	1699
3,	8218,	7887,	8238,	8460,	8905,	8563,	8552,	8318,	8399,	8400,	8843,	8804,	8450,	9028,	14.41,	10.36,	12.10,	0.36,	13.67,	12.19,	11.07,	11.82,	11.56,	10.73,	12.27,	13.33,	12.79,	10.46,	1709,	1699
4,	8235,	7899,	8255,	8461,	8918,	8581,	8577,	8345,	8424,	8409,	8872,	8834,	8470,	9040,	14.41,	10.36,	12.10,	0.36,	13.64,	12.19,	11.07,	11.82,	11.56,	10.73,	12.27,	13.33,	12.79,	10.46,	1709,	1698
5,	8249,	7908,	8262,	8470,	8945,	8586,	8587,	8370,	8454,	8430,	8891,	8851,	8476,	9041,	14.41,	10.36,	12.10,	0.36,	13.64,	12.19,	11.07,	11.82,	11.56,	10.73,	12.27,	13.33,	12.79,	10.46,	1708,	1699
6,	8221,	7890,	8237,	8459,	8952,	8560,	8548,	8312,	8407,	8406,	8856,	8808,	8445,	9018,	14.41,	10.36,	12.10,	0.36,	13.64,	12.19,	10.96,	11.82,	11.56,	10.73,	12.27,	13.33,	12.79,	10.46,	1708,	1699
7,	8197,	7874,	8225,	8442,	8933,	8545,	8530,	8279,	8373,	8379,	8833,	8783,	8432,	9002,	14.41,	10.36,	12.10,	0.36,	13.64,	12.19,	10.96,	11.82,	11.56,	10.73,	12.27,	13.33,	12.79,	10.46,	1706,	1700
8,	8222,	7900,	8247,	8465,	8933,	8571,	8561,	8327,	8414,	8401,	8856,	8817,	8463,	9022,	14.41,	10.36,	12.10,	0.36,	13.64,	12.19,	10.96,	11.82,	11.51,	10.73,	12.27,	13.33,	12.79,	10.46,	1707,	1700
9,	8233,	7913,	8244,	8473,	8938,	8577,	8558,	8324,	8403,	8411,	8859,	8825,	8461,	9028,	14.41,	10.36,	12.10,	0.36,	13.64,	12.19,	10.96,	11.82,	11.51,	10.76,	12.27,	13.33,	12.79,	10.46,	1705,	1698
10,	8216,	7886,	8223,	8454,	8927,	8554,	8535,	8281,	8351,	8384,	8841,	8807,	8434,	9013,	14.41,	10.36,	12.10,	0.36,	13.64,	12.19,	10.96,	11.82,	11.51,	10.76,	12.31,	13.33,	12.79,	10.46,	1704,	1698
11,	8224,	7882,	8235,	8466,	8929,	8561,	8552,	8309,	8385,	8386,	8850,	8819,	8451,	9021,	14.41,	10.36,	12.10,	0.36,	13.64,	12.19,	10.96,	11.82,	11.51,	10.76,	12.31,	13.33,	12.79,	10.46,	1704,	1699
12,	8225,	7891,	8237,	8472,	8924,	8571,	8563,	8339,	8429,	8406,	8855,	8827,	8462,	9027,	14.41,	10.36,	12.10,	0.36,	13.64,	12.19,	10.96,	11.82,	11.51,	10.76,	12.31,	13.33,	12.79,	10.46,	1702,	1702
13,	8201,	7877,	8209,	8455,	8890,	8551,	8546,	8319,	8404,	8395,	8841,	8805,	8434,	9011,	14.41,	10.36,	12.10,	0.36,	13.64,	12.19,	10.96,	11.82,	11.51,	10.76,	12.31,	13.33,	12.79,	10.46,	1702,	1702
14,	8193,	7873,	8208,	8458,	8900,	8549,	8551,	8327,	8400,	8390,	8847,	8803,	8435,	9003,	14.41,	10.36,	12.10,	0.36,	13.64,	12.19,	10.96,	11.82,	11.51,	10.76,	12.31,	13.33,	12.79,	10.46,	1700,	1703
15,	8195,	7880,	8214,	8462,	8942,	8571,	8573,	8351,	8422,	8397,	8856,	8813,	8451,	9004,	14.41,	10.36,	12.10,	0.36,	13.64,	12.19,	10.96,	11.82,	11.51,	10.76,	12.31,	13.35,	12.79,	10.46,	1700,	1701
16,	8190,	7866,	8193,	8441,	8934,	8571,	8571,	8338,	8412,	8387,	8832,	8793,	8424,	8991,	14.41,	10.36,	12.10,	0.36,	13.64,	12.19,	10.96,	11.82,	11.51,	10.76,	12.31,	13.35,	12.79,	10.46,	1698,	1699
17,	8188,	7857,	8185,	8429,	8920,	8570,	8569,	8329,	8408,	8390,	8825,	8786,	8415,	8989,	14.41,	10.36,	12.10,	0.36,	13.64,	12.19,	10.96,	11.82,	11.51,	10.76,	12.31,	13.35,	12.79,	10.46,	1698,	1697
18,	8193,	7869,	8198,	8433,	8937,	8588,	8593,	8358,	8422,	8416,	8842,	8807,	8441,	9003,	14.41,	10.36,	12.10,	0.36,	13.64,	12.19,	10.96,	11.82,	11.51,	10.76,	12.31,	13.35,	12.79,	10.46,	1696,	1697
19,	8193,	7865,	8193,	8437,	8926,	8579,	8591,	8366,	8399,	8403,	8836,	8805,	8431,	9004,	14.41,	10.36,	12.10,	0.36,	13.64,	12.19,	10.96,	11.82,	11.51,	10.76,	12.31,	13.35,	12.79,	10.46,	1697,	1698
20,	8181,	7846,	8177,	8431,	8892,	8546,	8548,	8327,	8361,	8362,	8812,	8790,	8400,	8985,	14.41,	10.36,	12.10,	0.36,	13.64,	12.19,	10.96,	11.82,	11.51,	10.76,	12.31,	13.35,	12.79,	10.46,	1695,	1697
21,	8183,	7854,	8187,	8431,	8896,	8549,	8540,	8324,	8388,	8371,	8815,	8808,	8417,	8987,	14.41,	10.36,	12.10,	0.36,	13.64,	12.19,	10.96,	11.82,	11.51,	10.76,	12.31,	13.35,	12.79,	10.46,	1694,	1698
22,	8225,	7887,	8227,	8461,	8910,	8584,	8576,	8370,	8439,	8412,	8850,	8842,	8458,	9030,	14.41,	10.36,	12.10,	0.36,	13.64,	12.19,	10.96,	11.82,	11.51,	10.76,	12.31,	13.35,	12.79,	10.46,	1694,	1697
23,	8255,	7899,	8245,	8479,	8905,	8593,	8576,	8373,	8434,	8426,	8866,	8858,	8462,	9048,	14.41,	10.36,	12.10,	0.36,	13.64,	12.19,	10.96,	11.82,	11.51,	10.76,	12.31,	13.35,	12.79,	10.46,	1693,	1697
24,	8234,	7889,	8225,	8462,	8914,	8572,	8549,	8314,	8390,	8394,	8842,	8851,	8436,	9022,	14.41,	10.36,	12.10,	0.36,	13.64,	12.19,	10.96,	11.82,	11.51,	10.76,	12.31,	13.35,	12.79,	10.46,	1692,	1695
25,	8215,	7881,	8209,	8451,	8930,	8563,	8554,	8280,	8360,	8356,	8815,	8828,	8421,	9005,	14.41,	10.36,	12.10,	0.36,	13.64,	12.19,	10.96,	11.82,	11.51,	10.76,	12.31,	13.35,	12.79,	10.46,	1691,	1694
26,	8221,	7879,	8208,	8450,	8922,	8571,	8568,	8310,	8364,	8361,	8814,	8816,	8423,	9008,	14.41,	10.36,	12.10,	0.36,	13.64,	12.19,	10.96,	11.82,	11.51,	10.76,	12.31,	13.35,	12.79,	10.46,	1690,	1693
27,	8225,	7881,	8204,	8447,	8918,	8579,	8569,	8331,	8382,	8391,	8829,	8827,	8432,	9009,	14.41,	10.36,	12.10,	0.36,	13.64,	12.19,	10.96,	11.82,	11.51,	10.76,	12.31,	13.35,	12.79,	10.46,	1689,	1694
28,	8224,	7884,	8205,	8449,	8936,	8578,	8572,	8317,	8391,	8400,	8836,	8843,	8444,	9014,	14.41,	10.36,	12.10,	0.36,	13.64,	12.19,	10.96,	11.82,	11.51,	10.76,	12.31,	13.35,	12.79,	10.46,	1689,	1697
29,	8209,	7869,	8201,	8441,	8928,	8564,	8562,	8309,	8374,	8380,	8822,	8836,	8441,	9011,	14.41,	10.36,	12.10,	0.36,	13.64,	12.19,	10.96,	11.82,	11.51,	10.76,	12.31,	13.35,	12.79,	10.46,	1689,	1699
30,	8196,	7851,	8192,	8430,	8902,	8556,	8549,	8318,	8363,	8379,	8818,	8820,	8429,	8997,	14.41,	10.36,	12.10,	0.36,	13.64,	12.19,	10.96,	11.82,	11.51,	10.76,	12.31,	13.35,	12.79,	10.46,	1689,	1699
31,	8207,	7861,	8197,	8435,	8894,	8562,	8555,	8331,	8381,	8398,	8845,	8827,	8432,	9002,	14.41,	10.36,	12.10,	0.36,	13.64,	12.19,	10.96,	11.82,	11.51,	10.76,	12.31,	13.35,	12.79,	10.46,	1690,	1701
32,	8215,	7876,	8201,	8442,	8895,	8559,	8558,	8335,	8386,	8392,	8856,	8844,	8435,	9007,	14.41,	10.36,	12.10,	0.36,	13.64,	12.19,	10.96,	11.82,	11.51,	10.76,	12.31,	13.35,	12.79,	10.46,	1690,	1701
33,	8218,	7881,	8200,	8448,	8910,	8562,	8557,	8334,	8386,	8382,	8853,	8854,	8432,	9007,	14.41,	10.36,	12.10,	0.36,	13.64,	12.19,	10.96,	11.82,	11.51,	10.76,	12.31,	13.35,	12.79,	10.46,	1691,	1702
34,	8216,	7876,	8188,	8450,	8928,	8574,	8557,	8331,	8400,	8383,	8850,	8834,	8426,	9007,	14.41,	10.36,	12.10,	0.36,	13.64,	12.19,	10.96,	11.82,	11.51,	10.76,	12.31,	13.35,	12.79,	10.46,	1692,	1701
35,	8197,	7857,	8165,	8428,	8914,	8566,	8548,	8321,	8392,	8368,	8827,	8800,	8406,	8988,	14.41,	10.36,	12.10,	0.36,	13.64,	12.19,	10.96,	11.82,	11.51,	10.76,	12.31,	13.35,	12.79,	10.46,	1692,	1702
36,	8178,	7839,	8152,	8413,	8889,	8556,	8541,	8308,	8366,	8348,	8808,	8800,	8392,	8968,	14.41,	10.36,	12.10,	0.36,	13.64,	12.19,	10.96,	11.82,	11.51,	10.76,	12.31,	13.35,	12.79,	10.46,	1694,	1700
37,	8187,	7847,	8164,	8426,	8902,	8564,	8546,	8306,	8369,	8361,	8828,	8821,	8409,	8974,	14.41,	10.36,	12.10,	0.36,	13.64,	12.19,	10.96,	11.82,	11.51,	10.76,	12.31,	13.35,	12.79,	10.46,	1693,	1700
38,	8208,	7871,	8186,	8444,	8927,	8569,	8558,	8317,	8380,	8381,	8851,	8824,	8428,	8994,	14.41,	10.36,	12.10,	0.36,	13.64,	12.19,	10.96,	11.82,	11.51,	10.76,	12.31,	13.35,	12.79,	10.46,	1694,	1700
39,	8212,	7870,	8189,	8440,	8913,	8572,	8565,	8329,	8370,	8375,	8841,	8815,	8420,	8999,	14.41,	10.36,	12.10,	0.36,	13.64,	12.19,	10.96,	11.82,	11.51,	10.76,	12.31,	13.35,	12.79,	10.46,	1695,	1699
40,	8192,	7850,	8166,	8424,	8886,	8574,	8558,	8317,	8358,	8363,	8818,	8810,	8400,	8985,	14.41,	10.36,	12.10,	0.36,	13.64,	12.19,	10.96,	11.82,	11.51,	10.76,	12.31,	13.35,	12.79,	10.46,	1694,	1700
41,	8180,	7847,	8152,	8424,	8893,	8560,	8548,	8293,	8355,	8351,	8808,	8807,	8395,	8972,	14.41,	10.36,	12.10,	0.36,	13.64,	12.19,	10.96,	11.82,	11.51,	10.76,	12.31,	13.35,	12.79,	10.46,	1696,	1699
42,	8210,	7870,	8184,	8445,	8927,	8560,	8553,	8303,	8367,	8358,	8825,	8824,	8405,	8984,	14.41,	10.36,	12.10,	0.36,	13.64,	12.19,	10.96,	11.82,	11.51,	10.76,	12.31,	13.35,	12.79,	10.46,	1695,	1699
43,	8234,	7881,	8201,	8447,	8929,	8570,	8552,	8310,	8360,	8368,	8842,	8841,	8406,	8998,	14.41,	10.36,	12.10,	0.36,	13.64,	12.19,	10.96,	11.82,	11.51,	10.76,	12.31,	13.35,	12.79,	10.46,	1696,	1699
44,	8221,	7869,	8181,	8430,	8893,	8551,	8528,	8275,	8322,	8353,	8825,	8833,	8398,	8989,	14.41,	10.36,	12.10,	0.36,	13.64,	12.19,	10.96,	11.82,	11.51,	10.76,	12.31,	13.35,	12.79,	10.46,	1695,	1700
45,	8226,	7882,	8189,	8453,	8895,	8538,	8519,	8255,	8315,	8341,	8820,	8837,	8403,	8990,	14.41,	10.36,	12.10,	0.36,	13.64,	12.19,	10.96,	11.82,	11.51,	10.76,	12.31,	13.35,	12.79,	10.46,	1696,	1700
46,	8252,	7913,	8212,	8486,	8935,	8553,	8538,	8279,	8345,	8358,	8840,	8851,	8416,	9014,	14.41,	10.36,	12.10,	0.36,	13.64,	12.19,	10.96,	11.82,	11.51,	10.76,	12.31,	13.35,	12.79,	10.46,	1694,	1701
47,	8245,	7904,	8198,	8468,	8929,	8557,	8549,	8292,	8347,	8373,	8839,	8847,	8420,	9017,	14.41,	10.36,	12.10,	0.36,	13.64,	12.19,	10.96,	11.82,	11.51,	10.76,	12.31,	13.35,	12.79,	10.46,	1695,	1701
48,	8217,	7879,	8177,	8443,	8900,	8554,	8543,	8285,	8324,	8359,	8824,	8835,	8412,	8997,	14.41,	10.36,	12.10,	0.36,	13.64,	12.19,	10.96,	11.82,	11.51,	10.76,	12.31,	13.35,	12.79,	10.46,	1694,	1702
49,	8224,	7892,	8181,	8453,	8934,	8568,	8548,	8301,	8343,	8359,	8830,	8833,	8410,	8998,	14.41,	10.36,	12.10,	0.36,	13.64,	12.19,	10.96,	11.82,	11.51,	10.76,	12.31,	13.35,	12.79,	10.46,	1694,	1701
50,	8226,	7892,	8178,	8448,	8959,	8574,	8562,	8325,	8374,	8376,	8833,	8825,	8417,	9001,	14.41,	10.36,	12.10,	0.36,	13.64,	12.19,	10.96,	11.82,	11.51,	10.76,	12.31,	13.35,	12.79,	10.46,	1692,	1699
51,	8191,	7860,	8153,	8421,	8922,	8566,	8558,	8322,	8361,	8366,	8809,	8807,	8408,	8982,	14.41,	10.36,	12.10,	0.36,	13.64,	12.19,	10.96,	11.82,	11.51,	10.76,	12.31,	13.35,	12.79,	10.46,	1691,	1698
52,	8187,	7862,	8149,	8429,	8918,	8569,	8555,	8304,	8340,	8351,	8796,	8809,	8401,	8978,	14.41,	10.36,	12.10,	0.36,	13.64,	12.19,	10.96,	11.82,	11.51,	10.76,	12.31,	13.35,	12.79,	10.46,	1691,	1695
53,	8224,	7889,	8169,	8448,	8944,	8570,	8557,	8286,	8336,	8357,	8814,	8818,	8420,	9003,	14.41,	10.36,	12.10,	0.36,	13.64,	12.19,	10.96,	11.82,	11.51,	10.76,	12.31,	13.35,	12.79,	10.46,	1689,	1694
54,	8232,	7889,	8174,	8436,	8939,	8561,	8559,	8289,	8336,	8365,	8822,	8824,	8435,	9014,	14.41,	10.36,	12.10,	0.36,	13.64,	12.19,	10.96,	11.82,	11.51,	10.76,	12.31,	13.35,	12.79,	10.46,	1690,	1693
55,	8209,	7867,	8153,	8412,	8912,	8550,	8551,	8298,	8336,	8362,	8799,	8820,	8415,	8995,	14.41,	10.36,	12.10,	0.36,	13.64,	12.19,	10.96,	11.82,	11.51,	10.76,	12.31,	13.35,	12.79,	10.46,	1689,	1693
56,	8200,	7850,	8139,	8402,	8884,	8525,	8529,	8267,	8321,	8353,	8782,	8801,	8382,	8980,	14.41,	10.36,	12.10,	0.36,	13.64,	12.19,	10.96,	11.82,	11.51,	10.76,	12.31,	13.35,	12.79,	10.46,	1690,	1693
57,	8240,	7884,	8170,	8441,	8920,	8550,	8559,	8298,	8350,	8384,	8820,	8822,	8417,	9021,	14.41,	10.36,	12.10,	0.36,	13.64,	12.19,	10.96,	11.82,	11.51,	10.76,	12.31,	13.35,	12.79,	10.46,	1690,	1692
58,	8270,	7925,	8195,	8478,	8986,	8609,	8624,	8404,	8416,	8426,	8851,	8855,	8459,	9058,	14.41,	10.36,	12.10,	0.36,	13.64,	12.19,	10.96,	11.82,	11.51,	10.76,	12.31,	13.35,	12.79,	10.46,	1692,	1691
59,	8224,	7889,	8152,	8443,	8964,	8596,	8610,	8387,	8388,	8385,	8799,	8807,	8411,	9008,	14.41,	10.36,	12.10,	0.36,	13.64,	12.19,	10.96,	11.82,	11.51,	10.76,	12.31,	13.35,	12.79,	10.46,	1692,	1688
60,	8173,	7835,	8104,	8397,	8909,	8540,	8548,	8287,	8313,	8316,	8748,	8751,	8351,	8951,	14.41,	10.36,	12.10,	0.36,	13.64,	12.19,	10.96,	11.82,	11.51,	10.76,	12.31,	13.35,	12.79,	10.46,	1693,	1686
61,	8184,	7846,	8117,	8406,	8924,	8541,	8547,	8284,	8320,	8331,	8765,	8768,	8364,	8963,	14.41,	10.36,	12.10,	0.36,	13.64,	12.19,	10.96,	11.82,	11.51,	10.76,	12.31,	13.35,	12.79,	10.46,	1694,	1682
62,	8207,	7880,	8149,	8438,	8945,	8573,	8574,	8336,	8365,	8381,	8798,	8796,	8409,	8995,	14.41,	10.36,	12.10,	0.36,	13.64,	12.19,	10.96,	11.82,	11.51,	10.76,	12.31,	13.35,	12.79,	10.46,	1694,	1681
63,	8200,	7873,	8145,	8439,	8915,	8567,	8559,	8325,	8361,	8382,	8806,	8803,	8423,	8994,	14.41,	10.36,	12.10,	0.36,	13.64,	12.19,	10.96,	11.82,	11.51,	10.76,	12.31,	13.35,	12.79,	10.46,	1696,	1678
64,	8182,	7849,	8126,	8419,	8895,	8527,	8525,	8271,	8326,	8358,	8798,	8810,	8403,	8973,	14.47,	10.36,	12.10,	0.36,	13.64,	12.19,	10.96,	11.82,	11.51,	10.76,	12.31,	13.35,	12.79,	10.46,	1695,	1677
65,	8193,	7862,	8135,	8422,	8911,	8518,	8524,	8255,	8320,	8367,	8810,	8820,	8406,	8984,	14.47,	10.31,	12.10,	0.36,	13.64,	12.19,	10.96,	11.82,	11.51,	10.76,	12.31,	13.35,	12.79,	10.46,	1696,	1675
66,	8244,	7903,	8174,	8462,	8953,	8566,	8567,	8313,	8369,	8405,	8843,	8848,	8457,	9032,	14.47,	10.31,	12.13,	0.36,	13.64,	12.19,	10.96,	11.82,	11.51,	10.76,	12.31,	13.35,	12.79,	10.46,	1695,	1676
67,	8260,	7902,	8182,	8466,	8963,	8584,	8577,	8344,	8389,	8407,	8845,	8858,	8467,	9044,	14.47,	10.31,	12.13,	0.37,	13.64,	12.19,	10.96,	11.82,	11.51,	10.76,	12.31,	13.35,	12.79,	10.46,	1695,	1676
68,	8228,	7876,	8150,	8438,	8917,	8546,	8552,	8306,	8344,	8376,	8812,	8823,	8423,	9013,	14.47,	10.31,	12.13,	0.37,	13.63,	12.19,	10.96,	11.82,	11.51,	10.76,	12.31,	13.35,	12.79,	10.46,	1695,	1678
69,	8229,	7884,	8149,	8442,	8899,	8545,	8566,	8305,	8329,	8376,	8806,	8815,	8415,	9007,	14.47,	10.31,	12.13,	0.37,	13.63,	12.18,	10.96,	11.82,	11.51,	10.76,	12.31,	13.35,	12.79,	10.46,	1695,	1678
70,	8234,	7880,	8150,	8429,	8927,	8556,	8570,	8320,	8332,	8369,	8798,	8827,	8416,	9006,	14.47,	10.31,	12.13,	0.37,	13.63,	12.18,	10.99,	11.82,	11.51,	10.76,	12.31,	13.35,	12.79,	10.46,	1694,	1679
71,	8219,	7865,	8133,	8403,	8935,	8544,	8551,	8303,	8316,	8351,	8775,	8816,	8403,	8997,	14.47,	10.31,	12.13,	0.37,	13.63,	12.18,	10.99,	11.84,	11.51,	10.76,	12.31,	13.35,	12.79,	10.46,	1693,	1680
72,	8235,	7885,	8141,	8418,	8920,	8559,	8566,	8313,	8329,	8372,	8791,	8818,	8417,	9013,	14.47,	10.31,	12.13,	0.37,	13.63,	12.18,	10.99,	11.84,	11.53,	10.76,	12.31,	13.35,	12.79,	10.46,	1694,	1681
73,	8256,	7897,	8154,	8432,	8927,	8566,	8576,	8323,	8337,	8386,	8804,	8829,	8428,	9023,	14.47,	10.31,	12.13,	0.37,	13.63,	12.18,	10.99,	11.84,	11.53,	10.73,	12.31,	13.35,	12.79,	10.46,	1693,	1683
74,	8251,	7885,	8150,	8423,	8945,	8554,	8560,	8312,	8335,	8364,	8790,	8825,	8420,	9019,	14.47,	10.31,	12.13,	0.37,	13.63,	12.18,	10.99,	11.84,	11.53,	10.73,	12.27,	13.35,	12.79,	10.46,	1693,	1683
75,	8245,	7887,	8148,	8424,	8934,	8560,	8557,	8309,	8353,	8358,	8789,	8822,	8419,	9023,	14.47,	10.31,	12.13,	0.37,	13.63,	12.18,	10.99,	11.84,	11.53,	10.73,	12.27,	13.35,	12.79,	10.46,	1693,	1686
76,	8236,	7889,	8147,	8413,	8913,	8562,	8554,	8296,	8343,	8364,	8791,	8824,	8411,	9016,	14.47,	10.31,	12.13,	0.37,	13.63,	12.18,	10.99,	11.84,	11.53,	10.73,	12.27,	13.35,	12.77,	10.46,	1694,	1686
77,	8227,	7882,	8145,	8405,	8924,	8553,	8547,	8284,	8316,	8362,	8793,	8819,	8403,	9006,	14.47,	10.31,	12.13,	0.37,	13.63,	12.18,	10.99,	11.84,	11.53,	10.73,	12.27,	13.35,	12.77,	10.47,	1694,	1687
78,	8217,	7870,	8132,	8412,	8931,	8553,	8550,	8303,	8333,	8368,	8787,	8800,	8408,	9002,	14.47,	10.31,	12.13,	0.37,	13.63,	12.18,	10.99,	11.84,	11.53,	10.73,	12.30,	13.35,	12.77,	10.47,	1694,	1689
79,	8187,	7851,	8102,	8386,	8887,	8536,	8530,	8292,	8328,	8350,	8758,	8774,	8388,	8976,	14.47,	10.31,	12.13,	0.37,	13.63,	12.18,	10.99,	11.84,	11.53,	10.73,	12.30,	13.36,	12.77,	10.47,	1696,	1689
80,	8182,	7857,	8106,	8377,	8874,	8522,	8519,	8261,	8291,	8329,	8751,	8776,	8372,	8966,	14.47,	10.31,	12.13,	0.37,	13.63,	12.18,	10.99,	11.84,	11.53,	10.73,	12.30,	13.36,	12.79,	10.47,	1696,	1691
81,	8214,	7882,	8143,	8412,	8933,	8555,	8549,	8290,	8308,	8358,	8780,	8803,	8400,	8998,	14.47,	10.31,	12.13,	0.37,	13.63,	12.18,	10.99,	11.84,	11.53,	10.73,	12.30,	13.36,	12.79,	10.44,	1696,	1690
82,	8225,	7880,	8144,	8417,	8958,	8577,	8568,	8334,	8359,	8384,	8793,	8816,	8422,	9017,	14.47,	10.31,	12.13,	0.37,	13.63,	12.18,	10.99,	11.84,	11.53,	10.73,	12.27,	13.36,	12.79,	10.44,	1696,	1690
83,	8223,	7874,	8136,	8407,	8921,	8568,	8565,	8331,	8366,	8369,	8790,	8820,	8416,	9009,	14.47,	10.31,	12.13,	0.37,	13.63,	12.18,	10.99,	11.84,	11.53,	10.73,	12.27,	13.35,	12.79,	10.44,	1697,	1690
84,	8224,	7875,	8142,	8416,	8907,	8547,	8551,	8305,	8331,	8347,	8788,	8817,	8404,	9005,	14.47,	10.31,	12.13,	0.37,	13.63,	12.18,	10.99,	11.84,	11.53,	10.73,	12.27,	13.35,	12.79,	10.44,	1697,	1690
85,	8202,	7856,	8123,	8392,	8911,	8521,	8529,	8291,	8305,	8330,	8769,	8794,	8386,	8991,	14.47,	10.31,	12.13,	0.37,	13.63,	12.18,	10.99,	11.84,	11.53,	10.73,	12.27,	13.35,	12.79,	10.44,	1696,	1690
86,	8185,	7844,	8104,	8373,	8897,	8522,	8524,	8290,	8312,	8324,	8753,	8784,	8374,	8978,	14.47,	10.31,	12.13,	0.37,	13.63,	12.18,	10.99,	11.84,	11.53,	10.73,	12.27,	13.35,	12.79,	10.44,	1696,	1690
87,	8195,	7862,	8111,	8401,	8900,	8546,	8545,	8301,	8333,	8347,	8760,	8789,	8387,	8989,	14.47,	10.31,	12.13,	0.37,	13.63,	12.18,	10.99,	11.84,	11.53,	10.73,	12.27,	13.35,	12.79,	10.44,	1696,	1690
88,	8188,	7863,	8105,	8404,	8923,	8552,	8550,	8303,	8332,	8348,	8759,	8776,	8389,	8986,	14.47,	10.31,	12.13,	0.37,	13.63,	12.18,	10.99,	11.84,	11.53,	10.73,	12.27,	13.35,	12.77,	10.44,	1695,	1690
89,	8153,	7830,	8074,	8365,	8907,	8521,	8522,	8274,	8301,	8307,	8730,	8749,	8355,	8949,	14.47,	10.31,	12.13,	0.37,	13.63,	12.18,	10.99,	11.84,	11.53,	10.73,	12.27,	13.35,	12.77,	10.46,	1694,	1690
90,	8138,	7820,	8061,	8360,	8880,	8509,	8508,	8254,	8287,	8306,	8720,	8744,	8342,	8935,	14.47,	10.31,	12.13,	0.37,	13.63,	12.18,	10.99,	11.84,	11.53,	10.73,	12.27,	13.35,	12.77,	10.46,	1694,	1690
91,	8153,	7845,	8080,	8382,	8898,	8531,	8525,	8256,	8304,	8340,	8745,	8760,	8362,	8957,	14.47,	10.31,	12.13,	0.37,	13.63,	12.18,	10.99,	11.84,	11.53,	10.73,	12.27,	13.35,	12.77,	10.46,	1694,	1689
92,	8161,	7846,	8079,	8374,	8909,	8539,	8537,	8256,	8300,	8329,	8745,	8752,	8356,	8955,	14.47,	10.31,	12.13,	0.37,	13.63,	12.18,	10.99,	11.84,	11.53,	10.73,	12.27,	13.35,	12.76,	10.46,	1692,	1691
93,	8155,	7830,	8062,	8362,	8888,	8524,	8523,	8252,	8277,	8301,	8724,	8731,	8339,	8936,	14.47,	10.31,	12.13,	0.37,	13.63,	12.18,	10.99,	11.84,	11.53,	10.73,	12.27,	13.35,	12.76,	10.47,	1693,	1689
94,	8158,	7846,	8075,	8379,	8891,	8522,	8510,	8256,	8281,	8311,	8738,	8743,	8357,	8951,	14.47,	10.31,	12.13,	0.37,	13.63,	12.18,	10.99,	11.84,	11.53,	10.73,	12.30,	13.35,	12.76,	10.47,	1690,	1690
95,	8168,	7862,	8094,	8395,	8917,	8540,	8514,	8261,	8294,	8332,	8753,	8759,	8371,	8967,	14.47,	10.31,	12.13,	0.37,	13.63,	12.18,	10.99,	11.84,	11.53,	10.73,	12.30,	13.36,	12.76,	10.47,	1691,	1689
96,	8169,	7854,	8081,	8382,	8929,	8549,	8532,	8280,	8304,	8344,	8739,	8758,	8367,	8961,	14.47,	10.31,	12.13,	0.37,	13.63,	12.18,	10.99,	11.84,	11.53,	10.73,	12.30,	13.36,	12.74,	10.47,	1689,	1690
97,	8160,	7847,	8059,	8370,	8919,	8538,	8544,	8305,	8316,	8349,	8722,	8751,	8362,	8955,	14.47,	10.31,	12.13,	0.37,	13.63,	12.18,	10.99,	11.84,	11.53,	10.73,	12.30,	13.36,	12.74,	10.43,	1690,	1690
98,	8155,	7841,	8052,	8376,	8909,	8520,	8524,	8282,	8299,	8341,	8726,	8741,	8350,	8953,	14.47,	10.31,	12.13,	0.37,	13.63,	12.18,	10.99,	11.84,	11.53,	10.73,	12.27,	13.36,	12.74,	10.43,	1689,	1691
99,	8152,	7835,	8056,	8381,	8903,	8510,	8501,	8239,	8267,	8336,	8737,	8738,	8351,	8948,	14.47,	10.31,	12.13,	0.37,	13.63,	12.18,	10.99,	11.84,	11.53,	10.73,	12.27,	13.35,	12.74,	10.43,	1689,	1692
100,	8138,	7832,	8060,	8372,	8885,	8506,	8507,	8247,	8272,	8330,	8734,	8738,	8356,	8939,	14.47,	10.31,	12.13,	0.37,	13.63,	12.18,	10.99,	11.84,	11.53,	10.73,	12.27,	13.35,	12.79,	10.43,	1690,	1691
101,	8132,	7836,	8059,	8374,	8880,	8512,	8519,	8273,	8294,	8325,	8729,	8734,	8351,	8938,	14.47,	10.31,	12.13,	0.37,	13.63,	12.18,	10.99,	11.84,	11.53,	10.73,	12.27,	13.35,	12.79,	10.47,	1691,	1689
102,	8156,	7851,	8073,	8397,	8915,	8540,	8523,	8283,	8308,	8345,	8745,	8754,	8369,	8959,	14.47,	10.31,	12.13,	0.37,	13.63,	12.18,	10.99,	11.84,	11.53,	10.73,	12.31,	13.35,	12.79,	10.47,	1693,	1686
103,	8166,	7859,	8088,	8403,	8931,	8542,	8527,	8300,	8318,	8358,	8765,	8771,	8387,	8974,	14.47,	10.31,	12.13,	0.37,	13.63,	12.18,	10.99,	11.84,	11.53,	10.73,	12.31,	13.38,	12.79,	10.47,	1694,	1687
104,	8154,	7850,	8079,	8391,	8917,	8516,	8510,	8280,	8298,	8335,	8760,	8741,	8371,	8959,	14.47,	10.31,	12.13,	0.37,	13.63,	12.18,	10.99,	11.84,	11.53,	10.73,	12.31,	13.38,	12.77,	10.47,	1696,	1685
105,	8139,	7838,	8060,	8380,	8910,	8498,	8467,	8200,	8243,	8302,	8732,	8707,	8344,	8933,	14.47,	10.31,	12.13,	0.37,	13.63,	12.18,	10.99,	11.84,	11.53,	10.73,	12.31,	13.38,	12.77,	10.47,	1696,	1687
106,	8136,	7836,	8057,	8386,	8898,	8494,	8459,	8176,	8218,	8288,	8719,	8722,	8335,	8929,	14.47,	10.31,	12.13,	0.37,	13.63,	12.18,	10.99,	11.84,	11.53,	10.73,	12.31,	13.38,	12.77,	10.47,	1698,	1688
107,	8166,	7855,	8083,	8413,	8905,	8519,	8508,	8254,	8272,	8322,	8746,	8767,	8359,	8958,	14.47,	10.31,	12.13,	0.37,	13.63,	12.18,	10.99,	11.84,	11.53,	10.73,	12.31,	13.33,	12.77,	10.47,	1699,	1686
108,	8192,	7875,	8101,	8435,	8935,	8560,	8550,	8315,	8330,	8360,	8769,	8785,	8396,	8981,	14.47,	10.31,	12.13,	0.37,	13.63,	12.18,	10.99,	11.84,	11.53,	10.73,	12.31,	13.33,	12.77,	10.47,	1700,	1686
109,	8155,	7859,	8068,	8407,	8923,	8555,	8535,	8285,	8310,	8334,	8743,	8742,	8381,	8957,	14.47,	10.31,	12.13,	0.37,	13.63,	12.18,	10.99,	11.84,	11.53,	10.73,	12.31,	13.33,	12.77,	10.47,	1701,	1682
110,	8118,	7833,	8034,	8372,	8892,	8526,	8513,	8252,	8275,	8300,	8723,	8711,	8347,	8931,	14.47,	10.31,	12.13,	0.37,	13.63,	12.18,	10.99,	11.84,	11.53,	10.73,	12.28,	13.33,	12.77,	10.47,	1701,	1682
111,	8144,	7845,	8053,	8389,	8909,	8538,	8533,	8289,	8304,	8330,	8740,	8736,	8361,	8943,	14.47,	10.31,	12.13,	0.37,	13.63,	12.18,	10.99,	11.84,	11.53,	10.73,	12.28,	13.35,	12.77,	10.47,	1702,	1681
112,	8169,	7869,	8081,	8410,	8938,	8560,	8553,	8310,	8327,	8356,	8754,	8757,	8378,	8957,	14.47,	10.31,	12.13,	0.37,	13.63,	12.18,	10.99,	11.84,	11.53,	10.73,	12.28,	13.35,	12.76,	10.47,	1703,	1682
113,	8160,	7868,	8077,	8406,	8932,	8547,	8533,	8250,	8278,	8333,	8756,	8755,	8370,	8951,	14.47,	10.31,	12.13,	0.37,	13.63,	12.18,	10.99,	11.84,	11.53,	10.73,	12.28,	13.35,	12.76,	10.44,	1703,	1681
114,	8156,	7855,	8067,	8402,	8925,	8537,	8528,	8233,	8263,	8322,	8759,	8758,	8369,	8947,	14.47,	10.31,	12.13,	0.37,	13.63,	12.18,	10.99,	11.84,	11.53,	10.73,	12.27,	13.35,	12.76,	10.44,	1702,	1683
115,	8159,	7849,	8070,	8394,	8930,	8550,	8553,	8296,	8317,	8340,	8760,	8761,	8369,	8952,	14.47,	10.31,	12.13,	0.37,	13.63,	12.18,	10.99,	11.84,	11.53,	10.73,	12.27,	13.35,	12.76,	10.44,	1705,	1682
116,	8157,	7851,	8071,	8382,	8930,	8554,	8556,	8312,	8332,	8344,	8756,	8760,	8363,	8952,	14.47,	10.31,	12.13,	0.37,	13.63,	12.18,	10.99,	11.84,	11.53,	10.73,	12.27,	13.35,	12.74,	10.44,	1703,	1681
117,	8162,	7855,	8071,	8388,	8924,	8549,	8541,	8292,	8310,	8337,	8759,	8755,	8365,	8952,	14.47,	10.31,	12.13,	0.37,	13.63,	12.18,	10.99,	11.84,	11.53,	10.73,	12.27,	13.35,	12.74,	10.44,	1704,	1680
118,	8179,	7864,	8087,	8413,	8938,	8561,	8545,	8316,	8334,	8354,	8779,	8758,	8382,	8971,	14.47,	10.31,	12.13,	0.37,	13.63,	12.18,	10.99,	11.84,	11.53,	10.73,	12.28,	13.35,	12.74,	10.44,	1704,	1679
119,	8197,	7877,	8101,	8429,	8957,	8567,	8546,	8333,	8360,	8371,	8794,	8777,	8399,	8992,	14.47,	10.31,	12.13,	0.37,	13.63,	12.18,	10.99,	11.84,	11.53,	10.73,	12.28,	13.36,	12.74,	10.44,	1704,	1678
120,	8193,	7874,	8095,	8425,	8937,	8554,	8535,	8314,	8343,	8357,	8779,	8781,	8391,	8984,	14.47,	10.31,	12.13,	0.37,	13.63,	12.18,	10.99,	11.84,	11.53,	10.73,	12.28,	13.36,	12.79,	10.44,	1704,	1676
121,	8169,	7854,	8082,	8404,	8913,	8546,	8525,	8277,	8310,	8335,	8746,	8754,	8359,	8959,	14.47,	10.31,	12.13,	0.37,	13.63,	12.18,	10.99,	11.84,	11.53,	10.73,	12.28,	13.36,	12.79,	10.44,	1703,	1676
122,	8174,	7858,	8088,	8404,	8943,	8553,	8525,	8249,	8296,	8336,	8750,	8754,	8364,	8964,	14.47,	10.31,	12.13,	0.37,	13.63,	12.18,	10.99,	11.84,	11.53,	10.73,	12.28,	13.36,	12.79,	10.44,	1704,	1676
123,	8182,	7864,	8084,	8409,	8962,	8547,	8523,	8241,	8289,	8336,	8759,	8764,	8379,	8970,	14.47,	10.31,	12.13,	0.37,	13.63,	12.18,	10.99,	11.84,	11.53,	10.73,	12.28,	13.38,	12.79,	10.44,	1702,	1678
124,	8157,	7841,	8057,	8382,	8922,	8527,	8510,	8243,	8282,	8319,	8735,	8740,	8348,	8946,	14.47,	10.31,	12.13,	0.37,	13.63,	12.18,	10.99,	11.84,	11.53,	10.73,	12.28,	13.38,	12.77,	10.44,	1702,	1679
125,	8157,	7841,	8062,	8378,	8911,	8532,	8512,	8264,	8308,	8336,	8734,	8736,	8347,	8952,	14.47,	10.31,	12.13,	0.37,	13.63,	12.18,	10.99,	11.84,	11.53,	10.73,	12.28,	13.38,	12.77,	10.43,	1700,	1680
126,	8187,	7868,	8093,	8408,	8943,	8547,	8532,	8298,	8349,	8374,	8773,	8772,	8398,	8987,	14.47,	10.31,	12.13,	0.37,	13.63,	12.18,	10.99,	11.84,	11.53,	10.73,	12.27,	13.38,	12.77,	10.43,	1701,	1680
127,	8173,	7857,	8078,	8393,	8921,	8528,	8527,	8292,	8335,	8350,	8767,	8765,	8387,	8973,	14.47,	10.31,	12.13,	0.37,	13.63,	12.18,	10.99,	11.84,	11.53,	10.73,	12.27,	13.38,	12.77,	10.43,	1699,	1680
0,	8168,	7861,	8072,	8409,	8951,	8553,	8534,	8300,	8346,	8365,	8778,	8779,	8396,	8974,	14.49,	10.31,	12.13,	0.37,	13.63,	12.18,	10.99,	11.84,	11.53,	10.73,	12.27,	13.38,	12.77,	10.43,	1698,	1679
1,	8163,	7850,	8065,	8405,	8965,	8568,	8549,	8330,	8377,	8384,	8788,	8778,	8402,	8968,	14.49,	10.33,	12.13,	0.37,	13.63,	12.18,	10.99,	11.84,	11.53,	10.73,	12.27,	13.38,	12.77,	10.43,	1697,	1681
2,	8129,	7817,	8029,	8369,	8913,	8535,	8525,	8304,	8341,	8345,	8747,	8733,	8363,	8936,	14.49,	10.33,	12.10,	0.37,	13.63,	12.18,	10.99,	11.84,	11.53,	10.73,	12.27,	13.38,	12.77,	10.43,	1697,	1681
3,	8126,	7816,	8025,	8366,	8900,	8529,	8502,	8256,	8301,	8324,	8725,	8722,	8350,	8936,	14.49,	10.33,	12.10,	0.39,	13.63,	12.18,	10.99,	11.84,	11.53,	10.73,	12.27,	13.38,	12.77,	10.43,	1696,	1683
4,	8131,	7819,	8030,	8365,	8918,	8532,	8493,	8227,	8292,	8322,	8729,	8733,	8347,	8936,	14.49,	10.33,	12.10,	0.39,	13.64,	12.18,	10.99,	11.84,	11.53,	10.73,	12.27,	13.38,	12.77,	10.43,	1697,	1682
5,	8124,	7810,	8026,	8363,	8923,	8515,	8489,	8241,	8300,	8318,	8729,	8725,	8339,	8923,	14.49,	10.33,	12.10,	0.39,	13.64,	12.16,	10.99,	11.84,	11.53,	10.73,	12.27,	13.38,	12.77,	10.43,	1696,	1683
6,	8140,	7829,	8047,	8387,	8928,	8535,	8507,	8278,	8318,	8334,	8751,	8735,	8370,	8941,	14.49,	10.33,	12.10,	0.39,	13.64,	12.16,	11.01,	11.84,	11.53,	10.73,	12.27,	13.38,	12.77,	10.43,	1697,	1683
7,	8173,	7862,	8078,	8409,	8928,	8578,	8545,	8307,	8363,	8366,	8787,	8764,	8404,	8977,	14.49,	10.33,	12.10,	0.39,	13.64,	12.16,	11.01,	11.81,	11.53,	10.73,	12.27,	13.38,	12.77,	10.43,	1696,	1683
8,	8177,	7867,	8081,	8421,	8930,	8570,	8554,	8312,	8392,	8379,	8782,	8769,	8393,	8980,	14.49,	10.33,	12.10,	0.39,	13.64,	12.16,	11.01,	11.81,	11.53,	10.73,	12.27,	13.38,	12.77,	10.43,	1696,	1683
9,	8163,	7858,	8071,	8435,	8949,	8552,	8536,	8297,	8359,	8356,	8758,	8758,	8373,	8959,	14.49,	10.33,	12.10,	0.39,	13.64,	12.16,	11.01,	11.81,	11.53,	10.73,	12.27,	13.38,	12.77,	10.43,	1695,	1683
10,	8160,	7858,	8067,	8430,	8957,	8565,	8526,	8281,	8319,	8326,	8741,	8743,	8366,	8948,	14.49,	10.33,	12.10,	0.39,	13.64,	12.16,	11.01,	11.81,	11.53,	10.73,	12.30,	13.38,	12.77,	10.43,	1697,	1681
11,	8159,	7854,	8059,	8416,	8943,	8563,	8526,	8282,	8323,	8324,	8730,	8731,	8359,	8944,	14.49,	10.33,	12.10,	0.39,	13.64,	12.16,	11.01,	11.81,	11.53,	10.73,	12.30,	13.36,	12.77,	10.43,	1697,	1682
12,	8148,	7847,	8042,	8411,	8917,	8545,	8526,	8288,	8336,	8329,	8717,	8721,	8347,	8935,	14.49,	10.33,	12.10,	0.39,	13.64,	12.16,	11.01,	11.81,	11.53,	10.73,	12.30,	13.36,	12.77,	10.43,	1699,	1681
13,	8133,	7838,	8032,	8394,	8895,	8541,	8519,	8278,	8317,	8312,	8708,	8706,	8341,	8924,	14.49,	10.33,	12.10,	0.39,	13.64,	12.16,	11.01,	11.81,	11.53,	10.73,	12.30,	13.36,	12.77,	10.47,	1698,	1681
14,	8117,	7816,	8024,	8368,	8886,	8529,	8496,	8247,	8296,	8296,	8701,	8691,	8332,	8911,	14.49,	10.33,	12.10,	0.39,	13.64,	12.16,	11.01,	11.81,	11.53,	10.73,	12.27,	13.36,	12.77,	10.47,	1699,	1679
15,	8128,	7820,	8031,	8381,	8909,	8524,	8500,	8252,	8320,	8323,	8715,	8704,	8340,	8919,	14.49,	10.33,	12.10,	0.39,	13.64,	12.16,	11.01,	11.81,	11.53,	10.73,	12.27,	13.33,	12.77,	10.47,	1699,	1680
16,	8169,	7852,	8063,	8421,	8933,	8560,	8541,	8299,	8358,	8359,	8748,	8746,	8371,	8956,	14.49,	10.33,	12.10,	0.39,	13.64,	12.16,	11.01,	11.81,	11.53,	10.73,	12.27,	13.33,	12.77,	10.47,	1700,	1679
17,	8178,	7853,	8076,	8420,	8923,	8586,	8555,	8325,	8360,	8352,	8750,	8757,	8377,	8967,	14.49,	10.33,	12.10,	0.39,	13.64,	12.16,	11.01,	11.81,	11.53,	10.73,	12.27,	13.33,	12.77,	10.47,	1700,	1680
18,	8164,	7837,	8060,	8402,	8915,	8569,	8532,	8317,	8356,	8341,	8732,	8737,	8365,	8954,	14.49,	10.33,	12.10,	0.39,	13.64,	12.16,	11.01,	11.81,	11.53,	10.73,	12.27,	13.33,	12.77,	10.47,	1701,	1680
19,	8167,	7844,	8058,	8413,	8919,	8549,	8522,	8293,	8353,	8346,	8731,	8728,	8366,	8952,	14.49,	10.33,	12.10,	0.39,	13.64,	12.16,	11.01,	11.81,	11.53,	10.73,	12.27,	13.33,	12.77,	10.47,	1701,	1679
20,	8149,	7839,	8052,	8406,	8889,	8538,	8516,	8258,	8308,	8325,	8718,	8720,	8353,	8937,	14.49,	10.33,	12.10,	0.39,	13.64,	12.16,	11.01,	11.81,	11.53,	10.73,	12.27,	13.33,	12.77,	10.47,	1701,	1682
21,	8133,	7820,	8032,	8379,	8876,	8538,	8520,	8266,	8301,	8310,	8706,	8712,	8335,	8922,	14.49,	10.33,	12.10,	0.39,	13.64,	12.16,	11.01,	11.81,	11.53,	10.73,	12.27,	13.33,	12.77,	10.47,	1703,	1682
22,	8176,	7842,	8057,	8408,	8949,	8568,	8556,	8329,	8381,	8354,	8744,	8748,	8372,	8959,	14.49,	10.33,	12.10,	0.39,	13.64,	12.16,	11.01,	11.81,	11.53,	10.73,	12.27,	13.33,	12.77,	10.47,	1702,	1684
23,	8198,	7859,	8081,	8432,	8977,	8587,	8570,	8340,	8401,	8376,	8768,	8772,	8398,	8982,	14.49,	10.33,	12.10,	0.39,	13.64,	12.16,	11.01,	11.81,	11.53,	10.73,	12.27,	13.33,	12.77,	10.47,	1703,	1683
24,	8160,	7830,	8051,	8388,	8912,	8567,	8544,	8300,	8345,	8340,	8729,	8735,	8357,	8949,	14.49,	10.33,	12.10,	0.39,	13.64,	12.16,	11.01,	11.81,	11.53,	10.73,	12.27,	13.33,	12.77,	10.47,	1703,	1683
25,	8136,	7813,	8030,	8368,	8895,	8556,	8536,	8297,	8347,	8325,	8716,	8717,	8340,	8934,	14.49,	10.33,	12.10,	0.39,	13.64,	12.16,	11.01,	11.81,	11.53,	10.73,	12.27,	13.33,	12.77,	10.47,	1705,	1684
26,	8140,	7822,	8042,	8383,	8914,	8575,	8554,	8322,	8386,	8337,	8735,	8731,	8357,	8942,	14.49,	10.33,	12.10,	0.39,	13.64,	12.16,	11.01,	11.81,	11.53,	10.73,	12.27,	13.33,	12.77,	10.47,	1705,	1685
27,	8139,	7821,	8041,	8375,	8898,	8581,	8549,	8320,	8374,	8337,	8726,	8725,	8350,	8936,	14.49,	10.33,	12.10,	0.39,	13.64,	12.16,	11.01,	11.81,	11.53,	10.73,	12.27,	13.33,	12.77,	10.47,	1706,	1685
28,	8139,	7816,	8035,	8371,	8889,	8558,	8524,	8291,	8350,	8335,	8718,	8710,	8340,	8932,	14.49,	10.33,	12.10,	0.39,	13.64,	12.16,	11.01,	11.81,	11.53,	10.73,	12.27,	13.33,	12.77,	10.47,	1705,	1684
29,	8150,	7826,	8052,	8386,	8907,	8555,	8529,	8290,	8368,	8350,	8746,	8726,	8360,	8949,	14.49,	10.33,	12.10,	0.39,	13.64,	12.16,	11.01,	11.81,	11.53,	10.73,	12.27,	13.33,	12.77,	10.47,	1707,	1684
30,	8158,	7832,	8059,	8385,	8914,	8568,	8545,	8302,	8383,	8363,	8767,	8754,	8377,	8954,	14.49,	10.33,	12.10,	0.39,	13.64,	12.16,	11.01,	11.81,	11.53,	10.73,	12.27,	13.33,	12.77,	10.47,	1706,	1683
31,	8161,	7836,	8050,	8383,	8923,	8573,	8541,	8299,	8375,	8361,	8761,	8757,	8375,	8951,	14.49,	10.33,	12.10,	0.39,	13.64,	12.16,	11.01,	11.81,	11.53,	10.73,	12.27,	13.33,	12.77,	10.47,	1707,	1685
32,	8176,	7850,	8061,	8403,	8937,	8578,	8543,	8308,	8379,	8357,	8764,	8754,	8381,	8969,	14.49,	10.33,	12.10,	0.39,	13.64,	12.16,	11.01,	11.81,	11.53,	10.73,	12.27,	13.33,	12.77,	10.47,	1708,	1683
33,	8178,	7842,	8062,	8395,	8927,	8568,	8538,	8294,	8369,	8345,	8759,	8749,	8374,	8966,	14.49,	10.33,	12.10,	0.39,	13.64,	12.16,	11.01,	11.81,	11.53,	10.73,	12.27,	13.33,	12.77,	10.47,	1706,	1684
34,	8157,	7818,	8036,	8363,	8895,	8545,	8518,	8257,	8336,	8325,	8728,	8728,	8350,	8937,	14.49,	10.33,	12.10,	0.39,	13.64,	12.16,	11.01,	11.81,	11.53,	10.73,	12.27,	13.33,	12.77,	10.47,	1708,	1683
35,	8153,	7824,	8033,	8368,	8877,	8557,	8523,	8269,	8341,	8334,	8723,	8715,	8354,	8940,	14.49,	10.33,	12.10,	0.39,	13.64,	12.16,	11.01,	11.81,	11.53,	10.73,	12.27,	13.33,	12.77,	10.47,	1706,	1683
36,	8170,	7848,	8052,	8389,	8898,	8571,	8534,	8294,	8362,	8357,	8750,	8734,	8376,	8961,	14.49,	10.33,	12.10,	0.39,	13.64,	12.16,	11.01,	11.81,	11.53,	10.73,	12.27,	13.33,	12.77,	10.47,	1707,	1683
37,	8173,	7851,	8054,	8384,	8917,	8545,	8521,	8279,	8350,	8358,	8756,	8751,	8375,	8960,	14.49,	10.33,	12.10,	0.39,	13.64,	12.16,	11.01,	11.81,	11.53,	10.73,	12.27,	13.33,	12.77,	10.47,	1706,	1681
38,	8191,	7855,	8067,	8397,	8922,	8554,	8544,	8306,	8375,	8377,	8757,	8761,	8390,	8975,	14.49,	10.33,	12.10,	0.39,	13.64,	12.16,	11.01,	11.81,	11.53,	10.73,	12.27,	13.33,	12.77,	10.47,	1705,	1680
39,	8200,	7858,	8077,	8413,	8923,	8584,	8572,	8345,	8416,	8401,	8769,	8766,	8413,	8992,	14.49,	10.33,	12.10,	0.39,	13.64,	12.16,	11.01,	11.81,	11.53,	10.73,	12.27,	13.33,	12.77,	10.47,	1704,	1680
40,	8163,	7828,	8041,	8381,	8907,	8561,	8533,	8301,	8375,	8371,	8752,	8733,	8385,	8960,	14.49,	10.33,	12.10,	0.39,	13.64,	12.16,	11.01,	11.81,	11.53,	10.73,	12.27,	13.33,	12.77,	10.47,	1704,	1679
41,	8147,	7809,	8022,	8357,	8900,	8545,	8521,	8288,	8354,	8345,	8730,	8715,	8362,	8939,	14.49,	10.33,	12.10,	0.39,	13.64,	12.16,	11.01,	11.81,	11.53,	10.73,	12.27,	13.33,	12.77,	10.47,	1702,	1677
42,	8171,	7828,	8046,	8377,	8923,	8577,	8564,	8340,	8403,	8363,	8745,	8741,	8379,	8958,	14.49,	10.33,	12.10,	0.39,	13.64,	12.16,	11.01,	11.81,	11.53,	10.73,	12.27,	13.33,	12.77,	10.47,	1700,	1678
43,	8180,	7846,	8060,	8393,	8934,	8589,	8568,	8330,	8398,	8374,	8761,	8752,	8391,	8970,	14.49,	10.33,	12.10,	0.39,	13.64,	12.16,	11.01,	11.81,	11.53,	10.73,	12.27,	13.33,	12.77,	10.47,	1700,	1675
44,	8153,	7829,	8035,	8371,	8906,	8553,	8530,	8282,	8346,	8350,	8737,	8729,	8370,	8954,	14.49,	10.33,	12.10,	0.39,	13.64,	12.16,	11.01,	11.81,	11.53,	10.73,	12.27,	13.33,	12.77,	10.47,	1698,	1675
45,	8131,	7805,	8013,	8347,	8891,	8540,	8529,	8291,	8344,	8319,	8709,	8710,	8345,	8929,	14.49,	10.33,	12.10,	0.39,	13.64,	12.16,	11.01,	11.81,	11.53,	10.73,	12.27,	13.33,	12.77,	10.47,	1697,	1674
46,	8158,	7822,	8040,	8366,	8921,	8571,	8560,	8325,	8377,	8331,	8737,	8728,	8363,	8939,	14.49,	10.33,	12.10,	0.39,	13.64,	12.16,	11.01,	11.81,	11.53,	10.73,	12.27,	13.33,	12.77,	10.47,	1695,	1673
47,	8188,	7845,	8071,	8394,	8938,	8573,	8551,	8311,	8374,	8360,	8762,	8757,	8392,	8963,	14.49,	10.33,	12.10,	0.39,	13.64,	12.16,	11.01,	11.81,	11.53,	10.73,	12.27,	13.33,	12.77,	10.47,	1693,	1673
48,	8169,	7830,	8053,	8378,	8908,	8542,	8520,	8280,	8349,	8346,	8730,	8755,	8373,	8956,	14.49,	10.33,	12.10,	0.39,	13.64,	12.16,	11.01,	11.81,	11.53,	10.73,	12.27,	13.33,	12.77,	10.47,	1692,	1670
49,	8169,	7830,	8052,	8377,	8907,	8554,	8537,	8300,	8358,	8341,	8733,	8754,	8369,	8961,	14.49,	10.33,	12.10,	0.39,	13.64,	12.16,	11.01,	11.81,	11.53,	10.73,	12.27,	13.33,	12.77,	10.47,	1690,	1671
50,	8222,	7868,	8094,	8419,	8964,	8604,	8587,	8350,	8404,	8378,	8783,	8789,	8415,	9003,	14.49,	10.33,	12.10,	0.39,	13.64,	12.16,	11.01,	11.81,	11.53,	10.73,	12.27,	13.33,	12.77,	10.47,	1688,	1671
51,	8234,	7876,	8096,	8428,	8979,	8618,	8603,	8365,	8424,	8381,	8775,	8792,	8411,	9012,	14.49,	10.33,	12.10,	0.39,	13.64,	12.16,	11.01,	11.81,	11.53,	10.73,	12.27,	13.33,	12.77,	10.47,	1688,	1671
52,	8200,	7854,	8069,	8401,	8945,	8611,	8597,	8359,	8413,	8362,	8740,	8758,	8380,	8985,	14.49,	10.33,	12.10,	0.39,	13.64,	12.16,	11.01,	11.81,	11.53,	10.73,	12.27,	13.33,	12.77,	10.47,	1687,	1671
53,	8179,	7841,	8059,	8378,	8924,	8604,	8588,	8348,	8394,	8360,	8751,	8751,	8382,	8976,	14.49,	10.33,	12.10,	0.39,	13.64,	12.16,	11.01,	11.81,	11.53,	10.73,	12.27,	13.33,	12.77,	10.47,	1686,	1674
54,	8177,	7831,	8056,	8360,	8919,	8580,	8568,	8322,	8377,	8355,	8763,	8762,	8384,	8975,	14.49,	10.33,	12.10,	0.39,	13.64,	12.16,	11.01,	11.81,	11.53,	10.73,	12.27,	13.33,	12.77,	10.47,	1687,	1672
55,	8200,	7843,	8080,	8383,	8930,	8577,	8564,	8315,	8396,	8373,	8775,	8781,	8395,	8991,	14.49,	10.33,	12.10,	0.39,	13.64,	12.16,	11.01,	11.81,	11.53,	10.73,	12.27,	13.33,	12.77,	10.47,	1685,	1674
56,	8211,	7856,	8097,	8412,	8931,	8590,	8565,	8312,	8398,	8386,	8795,	8802,	8406,	8999,	14.49,	10.33,	12.10,	0.39,	13.64,	12.16,	11.01,	11.81,	11.53,	10.73,	12.27,	13.33,	12.77,	10.47,	1687,	1673
57,	8187,	7840,	8077,	8393,	8914,	8577,	8548,	8282,	8352,	8351,	8781,	8788,	8392,	8980,	14.49,	10.33,	12.10,	0.39,	13.64,	12.16,	11.01,	11.81,	11.53,	10.73,	12.27,	13.33,	12.77,	10.47,	1687,	1672
58,	8195,	7843,	8080,	8387,	8922,	8572,	8553,	8290,	8357,	8355,	8783,	8786,	8397,	8991,	14.49,	10.33,	12.10,	0.39,	13.64,	12.16,	11.01,	11.81,	11.53,	10.73,	12.27,	13.33,	12.77,	10.47,	1688,	1673
59,	8242,	7885,	8124,	8438,	8952,	8607,	8595,	8343,	8429,	8412,	8827,	8828,	8445,	9037,	14.49,	10.33,	12.10,	0.39,	13.64,	12.16,	11.01,	11.81,	11.53,	10.73,	12.27,	13.33,	12.77,	10.47,	1689,	1671
60,	8249,	7896,	8128,	8453,	8952,	8624,	8606,	8350,	8448,	8412,	8824,	8835,	8452,	9035,	14.49,	10.33,	12.10,	0.39,	13.64,	12.16,	11.01,	11.81,	11.53,	10.73,	12.27,	13.33,	12.77,	10.47,	1689,	1672
61,	8221,	7870,	8093,	8418,	8943,	8604,	8580,	8322,	8415,	8375,	8788,	8806,	8419,	9000,	14.49,	10.33,	12.10,	0.39,	13.64,	12.16,	11.01,	11.81,	11.53,	10.73,	12.27,	13.33,	12.77,	10.47,	1692,	1672
62,	8221,	7870,	8098,	8417,	8957,	8601,	8589,	8351,	8429,	8394,	8803,	8811,	8421,	9011,	14.49,	10.33,	12.10,	0.39,	13.64,	12.16,	11.01,	11.81,	11.53,	10.73,	12.27,	13.33,	12.77,	10.47,	1693,	1675
63,	8235,	7882,	8117,	8434,	8959,	8620,	8614,	8393,	8462,	8421,	8822,	8829,	8440,	9035,	14.49,	10.33,	12.10,	0.39,	13.64,	12.16,	11.01,	11.81,	11.53,	10.73,	12.27,	13.33,	12.77,	10.47,	1695,	1676
64,	8221,	7870,	8100,	8417,	8943,	8611,	8585,	8346,	8439,	8395,	8788,	8804,	8418,	9013,	14.47,	10.33,	12.10,	0.39,	13.64,	12.16,	11.01,	11.81,	11.53,	10.73,	12.27,	13.33,	12.77,	10.47,	1695,	1679
65,	8205,	7862,	8087,	8409,	8936,	8586,	8561,	8297,	8399,	8378,	8776,	8787,	8396,	8994,	14.47,	10.33,	12.10,	0.39,	13.64,	12.16,	11.01,	11.81,	11.53,	10.73,	12.27,	13.33,	12.77,	10.47,	1698,	1677
66,	8225,	7882,	8110,	8442,	8955,	8607,	8608,	8363,	8424,	8405,	8814,	8813,	8428,	9021,	14.47,	10.33,	12.09,	0.39,	13.64,	12.16,	11.01,	11.81,	11.53,	10.73,	12.27,	13.33,	12.77,	10.47,	1699,	1675
67,	8221,	7880,	8104,	8433,	8951,	8628,	8634,	8416,	8450,	8397,	8809,	8813,	8428,	9019,	14.47,	10.33,	12.09,	0.39,	13.64,	12.16,	11.01,	11.81,	11.53,	10.73,	12.27,	13.33,	12.77,	10.47,	1700,	1674
68,	8174,	7849,	8064,	8391,	8917,	8597,	8585,	8344,	8410,	8349,	8761,	8769,	8375,	8969,	14.47,	10.33,	12.09,	0.39,	13.64,	12.16,	11.01,	11.81,	11.53,	10.73,	12.27,	13.33,	12.77,	10.47,	1700,	1673
69,	8191,	7864,	8091,	8419,	8925,	8588,	8572,	8315,	8405,	8371,	8783,	8789,	8396,	8986,	14.47,	10.33,	12.09,	0.39,	13.64,	12.15,	11.01,	11.81,	11.53,	10.73,	12.27,	13.33,	12.77,	10.47,	1701,	1673
70,	8254,	7908,	8148,	8469,	8949,	8617,	8613,	8391,	8472,	8434,	8845,	8857,	8460,	9050,	14.47,	10.33,	12.09,	0.39,	13.64,	12.15,	10.98,	11.81,	11.53,	10.73,	12.27,	13.33,	12.77,	10.47,	1700,	1675
71,	8243,	7901,	8136,	8451,	8941,	8614,	8605,	8389,	8474,	8420,	8826,	8843,	8439,	9034,	14.47,	10.33,	12.09,	0.39,	13.64,	12.15,	10.98,	11.81,	11.53,	10.73,	12.27,	13.33,	12.77,	10.47,	1701,	1675
72,	8208,	7872,	8104,	8429,	8954,	8592,	8551,	8302,	8400,	8375,	8788,	8796,	8393,	8989,	14.47,	10.33,	12.09,	0.39,	13.64,	12.15,	10.98,	11.81,	11.54,	10.73,	12.27,	13.33,	12.77,	10.47,	1700,	1677
73,	8219,	7878,	8111,	8442,	8979,	8591,	8533,	8276,	8379,	8377,	8802,	8804,	8404,	8998,	14.47,	10.33,	12.09,	0.39,	13.64,	12.15,	10.98,	11.81,	11.54,	10.74,	12.27,	13.33,	12.77,	10.47,	1700,	1675
74,	8213,	7874,	8106,	8431,	8958,	8582,	8546,	8314,	8408,	8389,	8805,	8820,	8412,	9007,	14.47,	10.33,	12.09,	0.39,	13.64,	12.15,	10.98,	11.81,	11.54,	10.74,	12.30,	13.33,	12.77,	10.47,	1698,	1677
75,	8189,	7855,	8092,	8417,	8940,	8579,	8561,	8343,	8425,	8387,	8800,	8815,	8405,	8998,	14.47,	10.33,	12.09,	0.39,	13.64,	12.15,	10.98,	11.81,	11.54,	10.74,	12.30,	13.35,	12.77,	10.47,	1700,	1677
76,	8188,	7848,	8092,	8415,	8943,	8581,	8558,	8338,	8420,	8384,	8807,	8808,	8409,	8997,	14.47,	10.33,	12.09,	0.39,	13.64,	12.15,	10.98,	11.81,	11.54,	10.74,	12.30,	13.35,	12.77,	10.47,	1698,	1678
77,	8195,	7854,	8094,	8413,	8927,	8573,	8539,	8315,	8404,	8372,	8796,	8805,	8396,	8990,	14.47,	10.33,	12.09,	0.39,	13.64,	12.15,	10.98,	11.81,	11.54,	10.74,	12.30,	13.35,	12.77,	10.47,	1698,	1678
78,	8223,	7886,	8121,	8444,	8949,	8600,	8568,	8344,	8435,	8397,	8811,	8826,	8413,	9015,	14.47,	10.33,	12.09,	0.39,	13.64,	12.15,	10.98,	11.81,	11.54,	10.74,	12.27,	13.35,	12.77,	10.47,	1697,	1677
79,	8272,	7920,	8162,	8476,	8987,	8646,	8625,	8414,	8505,	8452,	8863,	8869,	8468,	9065,	14.47,	10.33,	12.09,	0.39,	13.64,	12.15,	10.98,	11.81,	11.54,	10.74,	12.27,	13.35,	12.77,	10.47,	1696,	1679
80,	8257,	7896,	8143,	8442,	8954,	8614,	8591,	8374,	8469,	8423,	8844,	8854,	8452,	9047,	14.47,	10.33,	12.09,	0.39,	13.64,	12.15,	10.98,	11.81,	11.54,	10.74,	12.27,	13.35,	12.79,	10.47,	1695,	1679
81,	8211,	7869,	8108,	8415,	8918,	8565,	8536,	8301,	8390,	8362,	8801,	8818,	8399,	9009,	14.47,	10.33,	12.09,	0.39,	13.64,	12.15,	10.98,	11.81,	11.54,	10.74,	12.27,	13.35,	12.79,	10.43,	1695,	1679
82,	8238,	7900,	8135,	8449,	8962,	8615,	8587,	8369,	8445,	8393,	8827,	8844,	8429,	9043,	14.47,	10.33,	12.09,	0.39,	13.64,	12.15,	10.98,	11.81,	11.54,	10.74,	12.31,	13.35,	12.79,	10.43,	1694,	1678
83,	8265,	7912,	8149,	8452,	8993,	8648,	8613,	8415,	8491,	8426,	8839,	8862,	8456,	9060,	14.47,	10.33,	12.09,	0.39,	13.64,	12.15,	10.98,	11.81,	11.54,	10.74,	12.31,	13.35,	12.79,	10.43,	1693,	1679
84,	8225,	7873,	8112,	8416,	8961,	8589,	8548,	8321,	8414,	8379,	8801,	8829,	8403,	9010,	14.47,	10.33,	12.09,	0.39,	13.64,	12.15,	10.98,	11.81,	11.54,	10.74,	12.31,	13.35,	12.74,	10.43,	1694,	1678
85,	8189,	7851,	8094,	8402,	8936,	8567,	8524,	8267,	8370,	8350,	8785,	8806,	8376,	8981,	14.47,	10.33,	12.09,	0.39,	13.64,	12.15,	10.98,	11.81,	11.54,	10.74,	12.31,	13.35,	12.74,	10.43,	1694,	1678
86,	8189,	7861,	8094,	8405,	8939,	8601,	8548,	8305,	8396,	8358,	8789,	8794,	8390,	8986,	14.47,	10.33,	12.09,	0.39,	13.64,	12.15,	10.98,	11.81,	11.54,	10.74,	12.27,	13.35,	12.74,	10.43,	1694,	1678
87,	8194,	7868,	8089,	8409,	8946,	8606,	8556,	8326,	8412,	8359,	8784,	8784,	8391,	8987,	14.47,	10.33,	12.09,	0.39,	13.64,	12.15,	10.98,	11.81,	11.54,	10.74,	12.27,	13.33,	12.74,	10.43,	1694,	1677
88,	8212,	7883,	8104,	8436,	8953,	8601,	8573,	8339,	8426,	8382,	8801,	8817,	8414,	9004,	14.47,	10.33,	12.09,	0.39,	13.64,	12.15,	10.98,	11.81,	11.54,	10.74,	12.27,	13.33,	12.76,	10.43,	1695,	1678
89,	8225,	7892,	8116,	8445,	8955,	8612,	8585,	8368,	8443,	8410,	8824,	8845,	8436,	9024,	14.47,	10.33,	12.09,	0.39,	13.64,	12.15,	10.98,	11.81,	11.54,	10.74,	12.27,	13.33,	12.76,	10.44,	1696,	1676
90,	8192,	7857,	8080,	8395,	8940,	8595,	8555,	8349,	8417,	8377,	8796,	8801,	8389,	8996,	14.47,	10.33,	12.09,	0.39,	13.64,	12.15,	10.98,	11.81,	11.54,	10.74,	12.31,	13.33,	12.76,	10.44,	1696,	1676
91,	8163,	7831,	8056,	8366,	8921,	8574,	8533,	8315,	8392,	8345,	8765,	8769,	8359,	8963,	14.47,	10.33,	12.09,	0.39,	13.64,	12.15,	10.98,	11.81,	11.54,	10.74,	12.31,	13.35,	12.76,	10.44,	1697,	1674
92,	8205,	7869,	8101,	8418,	8934,	8594,	8560,	8353,	8442,	8394,	8810,	8820,	8422,	9002,	14.47,	10.33,	12.09,	0.39,	13.64,	12.15,	10.98,	11.81,	11.54,	10.74,	12.31,	13.35,	12.74,	10.44,	1697,	1672
93,	8259,	7916,	8147,	8472,	8967,	8620,	8587,	8401,	8494,	8445,	8864,	8870,	8470,	9056,	14.47,	10.33,	12.09,	0.39,	13.64,	12.15,	10.98,	11.81,	11.54,	10.74,	12.31,	13.35,	12.74,	10.47,	1698,	1672
94,	8233,	7893,	8120,	8441,	8957,	8606,	8568,	8363,	8450,	8411,	8822,	8835,	8426,	9030,	14.47,	10.33,	12.09,	0.39,	13.64,	12.15,	10.98,	11.81,	11.54,	10.74,	12.27,	13.35,	12.74,	10.47,	1698,	1673
95,	8203,	7871,	8093,	8412,	8945,	8594,	8549,	8321,	8403,	8376,	8783,	8801,	8395,	8993,	14.47,	10.33,	12.09,	0.39,	13.64,	12.15,	10.98,	11.81,	11.54,	10.74,	12.27,	13.35,	12.74,	10.47,	1699,	1671
96,	8256,	7911,	8137,	8465,	8990,	8627,	8583,	8367,	8454,	8415,	8837,	8851,	8448,	9035,	14.47,	10.33,	12.09,	0.39,	13.64,	12.15,	10.98,	11.81,	11.54,	10.74,	12.27,	13.35,	12.79,	10.47,	1698,	1672
97,	8288,	7934,	8168,	8495,	9013,	8650,	8608,	8399,	8498,	8443,	8867,	8880,	8474,	9071,	14.47,	10.33,	12.09,	0.39,	13.64,	12.15,	10.98,	11.81,	11.54,	10.74,	12.27,	13.35,	12.79,	10.43,	1699,	1675
98,	8235,	7892,	8123,	8445,	8969,	8615,	8569,	8351,	8457,	8404,	8812,	8832,	8422,	9031,	14.47,	10.33,	12.09,	0.39,	13.64,	12.15,	10.98,	11.81,	11.54,	10.74,	12.28,	13.35,	12.79,	10.43,	1699,	1673
99,	8197,	7860,	8087,	8408,	8945,	8577,	8533,	8305,	8396,	8355,	8771,	8800,	8385,	8990,	14.47,	10.33,	12.09,	0.39,	13.64,	12.15,	10.98,	11.81,	11.54,	10.74,	12.28,	13.35,	12.79,	10.43,	1698,	1676
100,	8218,	7882,	8111,	8434,	8966,	8595,	8548,	8314,	8386,	8354,	8788,	8814,	8404,	9000,	14.47,	10.33,	12.09,	0.39,	13.64,	12.15,	10.98,	11.81,	11.54,	10.74,	12.28,	13.35,	12.74,	10.43,	1699,	1675
101,	8241,	7904,	8137,	8456,	8969,	8624,	8575,	8349,	8430,	8385,	8813,	8838,	8430,	9029,	14.47,	10.33,	12.09,	0.39,	13.64,	12.15,	10.98,	11.81,	11.54,	10.74,	12.28,	13.35,	12.74,	10.47,	1698,	1679
102,	8232,	7892,	8124,	8441,	8954,	8610,	8573,	8359,	8457,	8400,	8824,	8845,	8438,	9031,	14.47,	10.33,	12.09,	0.39,	13.64,	12.15,	10.98,	11.81,	11.54,	10.74,	12.28,	13.35,	12.74,	10.47,	1698,	1679
103,	8221,	7884,	8114,	8434,	8958,	8599,	8571,	8357,	8446,	8406,	8832,	8841,	8440,	9022,	14.47,	10.33,	12.09,	0.39,	13.64,	12.15,	10.98,	11.81,	11.54,	10.74,	12.28,	13.38,	12.74,	10.47,	1697,	1679
104,	8244,	7907,	8139,	8464,	8985,	8629,	8596,	8394,	8474,	8436,	8851,	8860,	8467,	9042,	14.47,	10.33,	12.09,	0.39,	13.64,	12.15,	10.98,	11.81,	11.54,	10.74,	12.28,	13.38,	12.74,	10.47,	1699,	1677
105,	8260,	7919,	8147,	8474,	9004,	8645,	8605,	8417,	8512,	8456,	8868,	8878,	8487,	9057,	14.47,	10.33,	12.09,	0.39,	13.64,	12.15,	10.98,	11.81,	11.54,	10.74,	12.28,	13.38,	12.74,	10.44,	1698,	1674
106,	8229,	7893,	8117,	8437,	8985,	8627,	8579,	8379,	8478,	8430,	8854,	8857,	8453,	9032,	14.47,	10.33,	12.09,	0.39,	13.64,	12.15,	10.98,	11.81,	11.54,	10.74,	12.31,	13.38,	12.74,	10.44,	1698,	1673
107,	8212,	7880,	8103,	8427,	8953,	8608,	8553,	8345,	8438,	8405,	8832,	8835,	8426,	9014,	14.47,	10.33,	12.09,	0.39,	13.64,	12.15,	10.98,	11.81,	11.54,	10.74,	12.31,	13.35,	12.74,	10.44,	1698,	1676
108,	8228,	7891,	8119,	8445,	8952,	8605,	8550,	8344,	8446,	8408,	8832,	8838,	8438,	9024,	14.47,	10.33,	12.09,	0.39,	13.64,	12.15,	10.98,	11.81,	11.54,	10.74,	12.31,	13.35,	12.77,	10.44,	1699,	1679
109,	8217,	7884,	8115,	8432,	8968,	8601,	8552,	8340,	8445,	8405,	8838,	8828,	8433,	9019,	14.47,	10.33,	12.09,	0.39,	13.64,	12.15,	10.98,	11.81,	11.54,	10.74,	12.31,	13.35,	12.77,	10.43,	1698,	1679
110,	8197,	7868,	8097,	8417,	8961,	8590,	8544,	8339,	8426,	8394,	8831,	8823,	8425,	9008,	14.47,	10.33,	12.09,	0.39,	13.64,	12.15,	10.98,	11.81,	11.54,	10.74,	12.27,	13.35,	12.77,	10.43,	1698,	1680
111,	8212,	7872,	8105,	8432,	8935,	8590,	8548,	8355,	8438,	8396,	8813,	8836,	8439,	9019,	14.47,	10.33,	12.09,	0.39,	13.64,	12.15,	10.98,	11.81,	11.54,	10.74,	12.27,	13.33,	12.77,	10.43,	1698,	1677
112,	8231,	7879,	8116,	8435,	8924,	8595,	8565,	8361,	8456,	8406,	8810,	8829,	8443,	9034,	14.47,	10.33,	12.09,	0.39,	13.64,	12.15,	10.98,	11.81,	11.54,	10.74,	12.27,	13.33,	12.76,	10.43,	1696,	1676
113,	8226,	7876,	8111,	8417,	8936,	8607,	8581,	8368,	8454,	8416,	8837,	8828,	8445,	9043,	14.47,	10.33,	12.09,	0.39,	13.64,	12.15,	10.98,	11.81,	11.54,	10.74,	12.27,	13.33,	12.76,	10.44,	1697,	1674
114,	8223,	7873,	8111,	8411,	8950,	8621,	8586,	8380,	8460,	8419,	8867,	8855,	8458,	9043,	14.47,	10.33,	12.09,	0.39,	13.64,	12.15,	10.98,	11.81,	11.54,	10.74,	12.30,	13.33,	12.76,	10.44,	1696,	1676
115,	8241,	7883,	8129,	8428,	8953,	8618,	8582,	8377,	8470,	8424,	8877,	8888,	8469,	9048,	14.47,	10.33,	12.09,	0.39,	13.64,	12.15,	10.98,	11.81,	11.54,	10.74,	12.30,	13.36,	12.76,	10.44,	1696,	1679
116,	8253,	7895,	8146,	8446,	8950,	8609,	8581,	8377,	8475,	8439,	8884,	8896,	8478,	9059,	14.47,	10.33,	12.09,	0.39,	13.64,	12.15,	10.98,	11.81,	11.54,	10.74,	12.30,	13.36,	12.76,	10.44,	1696,	1682
117,	8237,	7884,	8146,	8442,	8956,	8619,	8583,	8385,	8483,	8443,	8891,	8889,	8481,	9056,	14.47,	10.33,	12.09,	0.39,	13.64,	12.15,	10.98,	11.81,	11.54,	10.74,	12.30,	13.36,	12.76,	10.47,	1695,	1683
118,	8219,	7868,	8133,	8428,	8946,	8608,	8566,	8368,	8469,	8425,	8881,	8881,	8468,	9041,	14.47,	10.33,	12.09,	0.39,	13.64,	12.15,	10.98,	11.81,	11.54,	10.74,	12.30,	13.36,	12.76,	10.47,	1695,	1682
119,	8230,	7879,	8133,	8427,	8932,	8581,	8550,	8350,	8446,	8424,	8870,	8882,	8461,	9044,	14.47,	10.33,	12.09,	0.39,	13.64,	12.15,	10.98,	11.81,	11.54,	10.74,	12.30,	13.36,	12.76,	10.47,	1695,	1680
120,	8256,	7904,	8148,	8443,	8956,	8606,	8576,	8378,	8463,	8446,	8884,	8892,	8472,	9061,	14.47,	10.33,	12.09,	0.39,	13.64,	12.15,	10.98,	11.81,	11.54,	10.74,	12.30,	13.36,	12.74,	10.47,	1693,	1678
121,	8255,	7898,	8141,	8444,	8982,	8635,	8594,	8396,	8483,	8445,	8889,	8885,	8474,	9059,	14.47,	10.33,	12.09,	0.39,	13.64,	12.15,	10.98,	11.81,	11.54,	10.74,	12.30,	13.36,	12.74,	10.46,	1693,	1679
122,	8226,	7875,	8122,	8426,	8964,	8608,	8569,	8363,	8461,	8413,	8862,	8875,	8456,	9047,	14.47,	10.33,	12.09,	0.39,	13.64,	12.15,	10.98,	11.81,	11.54,	10.74,	12.28,	13.36,	12.74,	10.46,	1691,	1680
123,	8220,	7873,	8127,	8425,	8939,	8588,	8561,	8351,	8448,	8400,	8827,	8877,	8452,	9046,	14.47,	10.33,	12.09,	0.39,	13.64,	12.15,	10.98,	11.81,	11.54,	10.74,	12.28,	13.35,	12.74,	10.46,	1690,	1681
124,	8246,	7890,	8139,	8443,	8951,	8613,	8592,	8391,	8468,	8420,	8817,	8879,	8465,	9054,	14.47,	10.33,	12.09,	0.39,	13.64,	12.15,	10.98,	11.81,	11.54,	10.74,	12.28,	13.35,	12.74,	10.46,	1688,	1681
125,	8248,	7888,	8129,	8443,	8963,	8623,	8605,	8406,	8468,	8431,	8817,	8866,	8459,	9051,	14.47,	10.33,	12.09,	0.39,	13.64,	12.15,	10.98,	11.81,	11.54,	10.74,	12.28,	13.35,	12.74,	10.44,	1688,	1680
126,	8221,	7870,	8114,	8426,	8953,	8606,	8595,	8401,	8463,	8420,	8813,	8853,	8445,	9042,	14.47,	10.33,	12.09,	0.39,	13.64,	12.15,	10.98,	11.81,	11.54,	10.74,	12.31,	13.35,	12.74,	10.44,	1687,	1679
127,	8218,	7868,	8109,	8418,	8949,	8613,	8607,	8427,	8482,	8419,	8804,	8854,	8452,	9039,	14.47,	10.33,	12.09,	0.39,	13.64,	12.15,	10.98,	11.81,	11.54,	10.74,	12.31,	13.38,	12.74,	10.44,	1686,	1680
0,	8209,	7865,	8101,	8422,	8928,	8634,	8613,	8426,	8473,	8418,	8792,	8845,	8434,	9021,	14.47,	10.33,	12.09,	0.39,	13.64,	12.15,	10.98,	11.81,	11.54,	10.74,	12.31,	13.38,	12.74,	10.44,	1684,	1682
1,	8210,	7869,	8107,	8433,	8944,	8612,	8595,	8403,	8472,	8419,	8807,	8848,	8439,	9022,	14.47,	10.36,	12.09,	0.39,	13.64,	12.15,	10.98,	11.81,	11.54,	10.74,	12.31,	13.38,	12.74,	10.44,	1685,	1680
2,	8218,	7874,	8108,	8430,	8961,	8599,	8568,	8357,	8444,	8404,	8818,	8846,	8437,	9021,	14.47,	10.36,	12.09,	0.39,	13.64,	12.15,	10.98,	11.81,	11.54,	10.74,	12.31,	13.38,	12.74,	10.44,	1683,	1684
3,	8230,	7887,	8116,	8438,	8965,	8620,	8564,	8330,	8431,	8400,	8842,	8850,	8440,	9027,	14.47,	10.36,	12.09,	0.36,	13.64,	12.15,	10.98,	11.81,	11.54,	10.74,	12.31,	13.38,	12.74,	10.44,	1684,	1683
4,	8228,	7893,	8127,	8448,	8966,	8633,	8576,	8347,	8460,	8413,	8858,	8854,	8452,	9035,	14.47,	10.36,	12.09,	0.36,	13.63,	12.15,	10.98,	11.81,	11.54,	10.74,	12.31,	13.38,	12.74,	10.44,	1683,	1684
5,	8224,	7889,	8128,	8443,	8966,	8613,	8570,	8360,	8475,	8425,	8848,	8861,	8457,	9039,	14.47,	10.36,	12.09,	0.36,	13.63,	12.18,	10.98,	11.81,	11.54,	10.74,	12.31,	13.38,	12.74,	10.44,	1683,	1685
6,	8244,	7900,	8133,	8454,	8965,	8613,	8563,	8368,	8474,	8438,	8855,	8875,	8459,	9050,	14.47,	10.36,	12.09,	0.36,	13.63,	12.18,	11.01,	11.81,	11.54,	10.74,	12.31,	13.38,	12.74,	10.44,	1683,	1684
7,	8246,	7906,	8133,	8461,	8949,	8615,	8559,	8378,	8479,	8434,	8861,	8866,	8446,	9043,	14.47,	10.36,	12.09,	0.36,	13.63,	12.18,	11.01,	11.84,	11.54,	10.74,	12.31,	13.38,	12.74,	10.44,	1683,	1685
8,	8224,	7897,	8123,	8446,	8932,	8591,	8543,	8364,	8465,	8410,	8845,	8850,	8437,	9026,	14.47,	10.36,	12.09,	0.36,	13.63,	12.18,	11.01,	11.84,	11.54,	10.74,	12.31,	13.38,	12.74,	10.44,	1683,	1686
9,	8253,	7910,	8138,	8463,	8960,	8597,	8554,	8370,	8467,	8427,	8861,	8874,	8469,	9054,	14.47,	10.36,	12.09,	0.36,	13.63,	12.18,	11.01,	11.84,	11.54,	10.76,	12.31,	13.38,	12.74,	10.44,	1683,	1687
10,	8296,	7939,	8168,	8493,	8999,	8632,	8586,	8405,	8502,	8462,	8894,	8907,	8503,	9089,	14.47,	10.36,	12.09,	0.36,	13.63,	12.18,	11.01,	11.84,	11.54,	10.76,	12.30,	13.38,	12.74,	10.44,	1684,	1688
11,	8268,	7931,	8159,	8472,	8983,	8617,	8574,	8401,	8497,	8443,	8880,	8895,	8483,	9065,	14.47,	10.36,	12.09,	0.36,	13.63,	12.18,	11.01,	11.84,	11.54,	10.76,	12.30,	13.36,	12.74,	10.44,	1684,	1690
12,	8239,	7907,	8131,	8441,	8943,	8585,	8545,	8370,	8454,	8416,	8849,	8874,	8452,	9035,	14.47,	10.36,	12.09,	0.36,	13.63,	12.18,	11.01,	11.84,	11.54,	10.76,	12.30,	13.36,	12.76,	10.44,	1685,	1688
13,	8245,	7903,	8132,	8445,	8930,	8587,	8550,	8364,	8442,	8418,	8841,	8870,	8449,	9037,	14.47,	10.36,	12.09,	0.36,	13.63,	12.18,	11.01,	11.84,	11.54,	10.76,	12.30,	13.36,	12.76,	10.46,	1685,	1688
14,	8253,	7910,	8144,	8452,	8943,	8608,	8575,	8383,	8466,	8424,	8858,	8878,	8465,	9045,	14.47,	10.36,	12.09,	0.36,	13.63,	12.18,	11.01,	11.84,	11.54,	10.76,	12.31,	13.36,	12.76,	10.46,	1687,	1689
15,	8254,	7908,	8140,	8444,	8955,	8625,	8584,	8397,	8480,	8430,	8882,	8884,	8479,	9058,	14.47,	10.36,	12.09,	0.36,	13.63,	12.18,	11.01,	11.84,	11.54,	10.76,	12.31,	13.33,	12.76,	10.46,	1685,	1690
16,	8239,	7901,	8124,	8447,	8950,	8612,	8569,	8382,	8465,	8429,	8867,	8867,	8462,	9047,	14.47,	10.36,	12.09,	0.36,	13.63,	12.18,	11.01,	11.84,	11.54,	10.76,	12.31,	13.33,	12.76,	10.46,	1686,	1692
17,	8218,	7899,	8113,	8459,	8949,	8598,	8565,	8369,	8461,	8416,	8830,	8846,	8438,	9019,	14.47,	10.36,	12.09,	0.36,	13.63,	12.18,	11.01,	11.84,	11.54,	10.76,	12.31,	13.33,	12.76,	10.46,	1688,	1691
18,	8210,	7894,	8115,	8461,	8956,	8611,	8577,	8367,	8464,	8410,	8830,	8839,	8437,	9015,	14.47,	10.36,	12.09,	0.36,	13.63,	12.18,	11.01,	11.84,	11.54,	10.76,	12.31,	13.33,	12.76,	10.46,	1687,	1691
19,	8236,	7903,	8130,	8466,	8970,	8632,	8583,	8373,	8459,	8426,	8856,	8849,	8455,	9039,	14.47,	10.36,	12.09,	0.36,	13.63,	12.18,	11.01,	11.84,	11.54,	10.76,	12.31,	13.33,	12.76,	10.46,	1688,	1690
20,	8254,	7914,	8130,	8471,	8977,	8633,	8580,	8380,	8458,	8438,	8862,	8857,	8463,	9049,	14.47,	10.36,	12.09,	0.36,	13.63,	12.18,	11.01,	11.84,	11.54,	10.76,	12.31,	13.33,	12.76,	10.46,	1688,	1691
21,	8223,	7888,	8106,	8451,	8949,	8614,	8570,	8371,	8459,	8424,	8839,	8842,	8447,	9029,	14.47,	10.36,	12.09,	0.36,	13.63,	12.18,	11.01,	11.84,	11.54,	10.76,	12.31,	13.33,	12.76,	10.46,	1690,	1691
22,	8202,	7870,	8103,	8442,	8924,	8602,	8560,	8350,	8452,	8411,	8832,	8829,	8437,	9018,	14.47,	10.36,	12.09,	0.36,	13.63,	12.18,	11.01,	11.84,	11.54,	10.76,	12.31,	13.33,	12.76,	10.46,	1689,	1692
23,	8214,	7884,	8115,	8451,	8927,	8596,	8548,	8331,	8437,	8413,	8838,	8828,	8435,	9018,	14.47,	10.36,	12.09,	0.36,	13.63,	12.18,	11.01,	11.84,	11.54,	10.76,	12.31,	13.33,	12.76,	10.46,	1691,	1692
24,	8208,	7878,	8099,	8436,	8920,	8593,	8545,	8342,	8439,	8405,	8824,	8816,	8428,	9008,	14.47,	10.36,	12.09,	0.36,	13.63,	12.18,	11.01,	11.84,	11.54,	10.76,	12.31,	13.33,	12.76,	10.46,	1690,	1692
25,	8216,	7882,	8107,	8445,	8928,	8605,	8570,	8382,	8469,	8411,	8835,	8835,	8444,	9021,	14.47,	10.36,	12.09,	0.36,	13.63,	12.18,	11.01,	11.84,	11.54,	10.76,	12.31,	13.33,	12.76,	10.46,	1693,	1691
26,	8252,	7920,	8143,	8481,	8966,	8618,	8581,	8399,	8484,	8441,	8866,	8875,	8471,	9054,	14.47,	10.36,	12.09,	0.36,	13.63,	12.18,	11.01,	11.84,	11.54,	10.76,	12.31,	13.33,	12.76,	10.46,	1692,	1690
27,	8236,	7907,	8129,	8459,	8959,	8597,	8554,	8372,	8457,	8436,	8844,	8849,	8452,	9043,	14.47,	10.36,	12.09,	0.36,	13.63,	12.18,	11.01,	11.84,	11.54,	10.76,	12.31,	13.33,	12.76,	10.46,	1693,	1692
28,	8205,	7871,	8096,	8422,	8931,	8589,	8558,	8374,	8454,	8406,	8816,	8807,	8426,	9012,	14.47,	10.36,	12.09,	0.36,	13.63,	12.18,	11.01,	11.84,	11.54,	10.76,	12.31,	13.33,	12.76,	10.46,	1694,	1691
29,	8221,	7887,	8105,	8435,	8944,	8616,	8592,	8404,	8478,	8406,	8834,	8822,	8441,	9023,	14.47,	10.36,	12.09,	0.36,	13.63,	12.18,	11.01,	11.84,	11.54,	10.76,	12.31,	13.33,	12.76,	10.46,	1694,	1693
30,	8228,	7900,	8112,	8439,	8952,	8621,	8594,	8386,	8449,	8406,	8828,	8828,	8440,	9028,	14.47,	10.36,	12.09,	0.36,	13.63,	12.18,	11.01,	11.84,	11.54,	10.76,	12.31,	13.33,	12.76,	10.46,	1695,	1694
31,	8225,	7897,	8110,	8440,	8945,	8627,	8594,	8372,	8431,	8401,	8812,	8825,	8429,	9025,	14.47,	10.36,	12.09,	0.36,	13.63,	12.18,	11.01,	11.84,	11.54,	10.76,	12.31,	13.33,	12.76,	10.46,	1696,	1695
32,	8235,	7905,	8119,	8461,	8951,	8630,	8597,	8388,	8454,	8414,	8827,	8839,	8439,	9037,	14.47,	10.36,	12.09,	0.36,	13.63,	12.18,	11.01,	11.84,	11.54,	10.76,	12.31,	13.33,	12.76,	10.46,	1697,	1692
33,	8224,	7895,	8109,	8451,	8945,	8610,	8582,	8387,	8443,	8410,	8823,	8826,	8433,	9029,	14.47,	10.36,	12.09,	0.36,	13.63,	12.18,	11.01,	11.84,	11.54,	10.76,	12.31,	13.33,	12.76,	10.46,	1697,	1693
34,	8212,	7875,	8096,	8433,	8930,	8600,	8580,	8381,	8431,	8393,	8810,	8813,	8416,	9016,	14.47,	10.36,	12.09,	0.36,	13.63,	12.18,	11.01,	11.84,	11.54,	10.76,	12.31,	13.33,	12.76,	10.46,	1699,	1691
35,	8216,	7870,	8097,	8433,	8932,	8597,	8569,	8370,	8448,	8392,	8816,	8815,	8423,	9017,	14.47,	10.36,	12.09,	0.36,	13.63,	12.18,	11.01,	11.84,	11.54,	10.76,	12.31,	13.33,	12.76,	10.46,	1698,	1691
36,	8225,	7877,	8107,	8437,	8951,	8593,	8551,	8346,	8448,	8409,	8831,	8828,	8444,	9028,	14.47,	10.36,	12.09,	0.36,	13.63,	12.18,	11.01,	11.84,	11.54,	10.76,	12.31,	13.33,	12.76,	10.46,	1701,	1691
37,	8232,	7886,	8114,	8444,	8956,	8599,	8555,	8333,	8435,	8419,	8840,	8846,	8449,	9039,	14.47,	10.36,	12.09,	0.36,	13.63,	12.18,	11.01,	11.84,	11.54,	10.76,	12.31,	13.33,	12.76,	10.46,	1699,	1689
38,	8206,	7863,	8083,	8423,	8928,	8589,	8545,	8313,	8410,	8388,	8809,	8819,	8415,	9013,	14.47,	10.36,	12.09,	0.36,	13.63,	12.18,	11.01,	11.84,	11.54,	10.76,	12.31,	13.33,	12.76,	10.46,	1700,	1690
39,	8166,	7827,	8044,	8380,	8896,	8560,	8516,	8279,	8378,	8352,	8774,	8773,	8377,	8973,	14.47,	10.36,	12.09,	0.36,	13.63,	12.18,	11.01,	11.84,	11.54,	10.76,	12.31,	13.33,	12.76,	10.46,	1701,	1687
40,	8161,	7828,	8043,	8380,	8890,	8553,	8515,	8284,	8376,	8351,	8780,	8775,	8375,	8974,	14.47,	10.36,	12.09,	0.36,	13.63,	12.18,	11.01,	11.84,	11.54,	10.76,	12.31,	13.33,	12.76,	10.46,	1701,	1686
41,	8178,	7846,	8056,	8405,	8899,	8559,	8534,	8316,	8394,	8370,	8786,	8788,	8388,	8989,	14.47,	10.36,	12.09,	0.36,	13.63,	12.18,	11.01,	11.84,	11.54,	10.76,	12.31,	13.33,	12.76,	10.46,	1701,	1684
42,	8201,	7861,	8069,	8415,	8914,	8576,	8552,	8332,	8407,	8390,	8785,	8784,	8398,	8995,	14.47,	10.36,	12.09,	0.36,	13.63,	12.18,	11.01,	11.84,	11.54,	10.76,	12.31,	13.33,	12.76,	10.46,	1701,	1682
43,	8228,	7874,	8091,	8430,	8929,	8604,	8576,	8350,	8431,	8407,	8815,	8798,	8417,	9016,	14.47,	10.36,	12.09,	0.36,	13.63,	12.18,	11.01,	11.84,	11.54,	10.76,	12.31,	13.33,	12.76,	10.46,	1701,	1680
44,	8216,	7861,	8084,	8429,	8922,	8594,	8568,	8340,	8430,	8398,	8817,	8796,	8414,	9014,	14.47,	10.36,	12.09,	0.36,	13.63,	12.18,	11.01,	11.84,	11.54,	10.76,	12.31,	13.33,	12.76,	10.46,	1700,	1677
45,	8192,	7852,	8060,	8412,	8927,	8582,	8555,	8317,	8406,	8396,	8798,	8787,	8406,	8998,	14.47,	10.36,	12.09,	0.36,	13.63,	12.18,	11.01,	11.84,	11.54,	10.76,	12.31,	13.33,	12.76,	10.46,	1700,	1671
46,	8195,	7860,	8058,	8409,	8952,	8601,	8581,	8358,	8428,	8406,	8806,	8794,	8420,	9010,	14.47,	10.36,	12.09,	0.36,	13.63,	12.18,	11.01,	11.84,	11.54,	10.76,	12.31,	13.33,	12.76,	10.46,	1700,	1666
47,	8175,	7839,	8037,	8389,	8927,	8585,	8579,	8382,	8452,	8387,	8796,	8764,	8407,	8995,	14.47,	10.36,	12.09,	0.36,	13.63,	12.18,	11.01,	11.84,	11.54,	10.76,	12.31,	13.33,	12.76,	10.46,	1700,	1656
48,	8148,	7814,	8005,	8361,	8882,	8550,	8528,	8306,	8404,	8380,	8766,	8731,	8373,	8956,	14.47,	10.36,	12.09,	0.36,	13.63,	12.18,	11.01,	11.84,	11.54,	10.76,	12.31,	13.33,	12.76,	10.46,	1699,	1653
49,	8154,	7826,	8002,	8365,	8896,	8561,	8506,	8242,	8349,	8392,	8763,	8740,	8371,	8954,	14.47,	10.36,	12.09,	0.36,	13.63,	12.18,	11.01,	11.84,	11.54,	10.76,	12.31,	13.33,	12.76,	10.46,	1700,	1647
50,	8151,	7834,	8012,	8377,	8915,	8574,	8536,	8285,	8350,	8359,	8755,	8747,	8371,	8961,	14.47,	10.36,	12.09,	0.36,	13.63,	12.18,	11.01,	11.84,	11.54,	10.76,	12.31,	13.33,	12.76,	10.46,	1699,	1641
51,	8152,	7837,	8038,	8402,	8905,	8559,	8551,	8351,	8390,	8339,	8748,	8764,	8370,	8964,	14.47,	10.36,	12.09,	0.36,	13.63,	12.18,	11.01,	11.84,	11.54,	10.76,	12.31,	13.33,	12.76,	10.46,	1699,	1634
52,	8213,	7885,	8106,	8466,	8940,	8586,	8533,	8377,	8445,	8413,	8807,	8834,	8416,	9015,	14.47,	10.36,	12.09,	0.36,	13.63,	12.18,	11.01,	11.84,	11.54,	10.76,	12.31,	13.33,	12.76,	10.46,	1697,	1629
53,	8234,	7905,	8143,	8494,	8957,	8590,	8490,	8340,	8426,	8428,	8836,	8875,	8430,	9036,	14.47,	10.36,	12.09,	0.36,	13.63,	12.18,	11.01,	11.84,	11.54,	10.76,	12.31,	13.33,	12.76,	10.46,	1697,	1621
54,	8188,	7870,	8130,	8477,	8903,	8530,	8448,	8256,	8325,	8334,	8785,	8850,	8379,	8988,	14.47,	10.36,	12.09,	0.36,	13.63,	12.18,	11.01,	11.84,	11.54,	10.76,	12.31,	13.33,	12.76,	10.46,	1695,	1617
55,	8227,	7899,	8184,	8532,	8909,	8547,	8490,	8300,	8363,	8354,	8807,	8902,	8412,	9020,	14.47,	10.36,	12.09,	0.36,	13.63,	12.18,	11.01,	11.84,	11.54,	10.76,	12.31,	13.33,	12.76,	10.46,	1695,	1611
56,	8321,	7969,	8275,	8606,	8975,	8612,	8562,	8426,	8492,	8467,	8896,	9016,	8500,	9115,	14.47,	10.36,	12.09,	0.36,	13.63,	12.18,	11.01,	11.84,	11.54,	10.76,	12.31,	13.33,	12.76,	10.46,	1693,	1603
57,	8327,	7978,	8297,	8610,	8983,	8605,	8555,	8397,	8445,	8452,	8905,	9044,	8499,	9118,	14.47,	10.36,	12.09,	0.36,	13.63,	12.18,	11.01,	11.84,	11.54,	10.76,	12.31,	13.33,	12.76,	10.46,	1693,	1594
58,	8298,	7957,	8292,	8607,	8967,	8581,	8514,	8296,	8346,	8385,	8839,	9004,	8459,	9078,	14.47,	10.36,	12.09,	0.36,	13.63,	12.18,	11.01,	11.84,	11.54,	10.76,	12.31,	13.33,	12.76,	10.46,	1693,	1585
59,	8303,	7961,	8288,	8599,	8975,	8598,	8528,	8337,	8405,	8394,	8806,	8995,	8454,	9084,	14.47,	10.36,	12.09,	0.36,	13.63,	12.18,	11.01,	11.84,	11.54,	10.76,	12.31,	13.33,	12.76,	10.46,	1693,	1583
60,	8273,	7941,	8247,	8537,	8943,	8575,	8513,	8370,	8414,	8363,	8815,	9007,	8427,	9060,	14.47,	10.36,	12.09,	0.36,	13.63,	12.18,	11.01,	11.84,	11.54,	10.76,	12.31,	13.33,	12.76,	10.46,	1694,	1579
61,	8240,	7912,	8244,	8526,	8915,	8527,	8446,	8264,	8305,	8301,	8833,	8999,	8396,	9022,	14.47,	10.36,	12.09,	0.36,	13.63,	12.18,	11.01,	11.84,	11.54,	10.76,	12.31,	13.33,	12.76,	10.46,	1694,	1580
62,	8319,	7963,	8339,	8621,	8974,	8566,	8483,	8278,	8336,	8362,	8890,	9033,	8462,	9089,	14.47,	10.36,	12.09,	0.36,	13.63,	12.18,	11.01,	11.84,	11.54,	10.76,	12.31,	13.33,	12.76,	10.46,	1695,	1578
63,	8444,	8064,	8420,	8698,	9045,	8650,	8605,	8457,	8496,	8483,	8971,	9140,	8574,	9207,	14.47,	10.36,	12.09,	0.36,	13.63,	12.18,	11.01,	11.84,	11.54,	10.76,	12.31,	13.33,	12.76,	10.46,	1694,	1575
64,	8492,	8105,	8431,	8714,	9061,	8680,	8656,	8523,	8550,	8513,	9004,	9220,	8612,	9249,	14.46,	10.36,	12.09,	0.36,	13.63,	12.18,	11.01,	11.84,	11.54,	10.76,	12.31,	13.33,	12.76,	10.46,	1695,	1569
65,	8469,	8079,	8432,	8723,	9060,	8672,	8621,	8444,	8483,	8476,	8976,	9196,	8575,	9225,	14.46,	10.33,	12.09,	0.36,	13.63,	12.18,	11.01,	11.84,	11.54,	10.76,	12.31,	13.33,	12.76,	10.46,	1694,	1566
66,	8425,	8040,	8410,	8696,	9046,	8657,	8583,	8398,	8435,	8439,	8924,	9120,	8531,	9194,	14.46,	10.33,	12.07,	0.36,	13.63,	12.18,	11.01,	11.84,	11.54,	10.76,	12.31,	13.33,	12.76,	10.46,	1696,	1568
67,	8385,	8020,	8360,	8638,	9007,	8626,	8560,	8395,	8435,	8406,	8883,	9086,	8507,	9163,	14.46,	10.33,	12.07,	0.36,	13.63,	12.18,	11.01,	11.84,	11.54,	10.76,	12.31,	13.33,	12.76,	10.46,	1696,	1569
68,	8376,	8024,	8345,	8632,	9008,	8613,	8551,	8378,	8435,	8395,	8889,	9101,	8502,	9142,	14.46,	10.33,	12.07,	0.36,	13.67,	12.18,	11.01,	11.84,	11.54,	10.76,	12.31,	13.33,	12.76,	10.46,	1696,	1572
69,	8367,	8017,	8343,	8654,	9026,	8633,	8557,	8376,	8433,	8398,	8899,	9081,	8490,	9128,	14.46,	10.33,	12.07,	0.36,	13.67,	12.16,	11.01,	11.84,	11.54,	10.76,	12.31,	13.33,	12.76,	10.46,	1697,	1572
70,	8352,	8007,	8328,	8648,	9012,	8649,	8577,	8412,	8468,	8411,	8875,	9035,	8483,	9128,	14.46,	10.33,	12.07,	0.36,	13.67,	12.16,	10.98,	11.84,	11.54,	10.76,	12.31,	13.33,	12.76,	10.46,	1695,	1574
71,	8372,	8030,	8338,	8647,	9023,	8661,	8601,	8443,	8506,	8430,	8886,	9058,	8513,	9151,	14.46,	10.33,	12.07,	0.36,	13.67,	12.16,	10.98,	11.81,	11.54,	10.76,	12.31,	13.33,	12.76,	10.46,	1696,	1571
72,	8375,	8024,	8327,	8631,	9038,	8646,	8576,	8406,	8471,	8417,	8894,	9071,	8513,	9144,	14.46,	10.33,	12.07,	0.36,	13.67,	12.16,	10.98,	11.81,	11.50,	10.76,	12.31,	13.33,	12.76,	10.46,	1696,	1571
73,	8348,	7997,	8288,	8603,	9031,	8638,	8555,	8378,	8465,	8406,	8869,	9015,	8478,	9118,	14.46,	10.33,	12.07,	0.36,	13.67,	12.16,	10.98,	11.81,	11.50,	10.77,	12.31,	13.33,	12.76,	10.46,	1696,	1572
74,	8333,	7998,	8269,	8599,	9017,	8659,	8573,	8391,	8489,	8406,	8863,	8978,	8466,	9108,	14.46,	10.33,	12.07,	0.36,	13.67,	12.16,	10.98,	11.81,	11.50,	10.77,	12.28,	13.33,	12.76,	10.46,	1696,	1575
75,	8280,	7957,	8213,	8548,	8960,	8613,	8526,	8322,	8411,	8335,	8826,	8932,	8419,	9054,	14.46,	10.33,	12.07,	0.36,	13.67,	12.16,	10.98,	11.81,	11.50,	10.77,	12.28,	13.30,	12.76,	10.46,	1697,	1579
76,	8200,	7889,	8142,	8465,	8907,	8546,	8464,	8241,	8322,	8244,	8753,	8841,	8338,	8982,	14.46,	10.33,	12.07,	0.36,	13.67,	12.16,	10.98,	11.81,	11.50,	10.77,	12.28,	13.30,	12.74,	10.46,	1697,	1584
77,	8208,	7906,	8156,	8475,	8937,	8575,	8491,	8278,	8358,	8263,	8760,	8826,	8344,	8994,	14.46,	10.33,	12.07,	0.36,	13.67,	12.16,	10.98,	11.81,	11.50,	10.77,	12.28,	13.30,	12.74,	10.47,	1698,	1585
78,	8255,	7944,	8190,	8526,	8986,	8618,	8523,	8322,	8410,	8320,	8817,	8880,	8404,	9039,	14.46,	10.33,	12.07,	0.36,	13.67,	12.16,	10.98,	11.81,	11.50,	10.77,	12.31,	13.30,	12.74,	10.47,	1698,	1583
79,	8249,	7931,	8169,	8512,	8970,	8599,	8508,	8323,	8430,	8328,	8839,	8888,	8417,	9040,	14.46,	10.33,	12.07,	0.36,	13.67,	12.16,	10.98,	11.81,	11.50,	10.77,	12.31,	13.27,	12.74,	10.47,	1698,	1582
80,	8230,	7917,	8152,	8491,	8931,	8589,	8508,	8333,	8454,	8323,	8838,	8864,	8395,	9026,	14.46,	10.33,	12.07,	0.36,	13.67,	12.16,	10.98,	11.81,	11.50,	10.77,	12.31,	13.27,	12.74,	10.47,	1700,	1580
81,	8250,	7936,	8178,	8520,	8933,	8621,	8534,	8341,	8455,	8337,	8846,	8879,	8400,	9033,	14.46,	10.33,	12.07,	0.36,	13.67,	12.16,	10.98,	11.81,	11.50,	10.77,	12.31,	13.27,	12.74,	10.46,	1698,	1584
82,	8292,	7972,	8218,	8562,	8978,	8654,	8557,	8365,	8479,	8371,	8891,	8925,	8442,	9072,	14.46,	10.33,	12.07,	0.36,	13.67,	12.16,	10.98,	11.81,	11.50,	10.77,	12.28,	13.27,	12.74,	10.46,	1700,	1587
83,	8277,	7963,	8199,	8542,	8987,	8639,	8544,	8371,	8502,	8366,	8906,	8915,	8443,	9070,	14.46,	10.33,	12.07,	0.36,	13.67,	12.16,	10.98,	11.81,	11.50,	10.77,	12.28,	13.27,	12.74,	10.46,	1699,	1590
84,	8212,	7906,	8138,	8483,	8934,	8587,	8498,	8312,	8444,	8312,	8851,	8841,	8381,	9010,	14.46,	10.33,	12.07,	0.36,	13.67,	12.16,	10.98,	11.81,	11.50,	10.77,	12.28,	13.27,	12.77,	10.46,	1700,	1596
85,	8182,	7876,	8110,	8454,	8902,	8579,	8483,	8290,	8419,	8290,	8809,	8800,	8349,	8977,	14.46,	10.33,	12.07,	0.36,	13.67,	12.16,	10.98,	11.81,	11.50,	10.77,	12.28,	13.27,	12.77,	10.47,	1699,	1599
86,	8163,	7871,	8083,	8433,	8891,	8595,	8495,	8314,	8448,	8284,	8792,	8778,	8342,	8961,	14.46,	10.33,	12.07,	0.36,	13.67,	12.16,	10.98,	11.81,	11.50,	10.77,	12.31,	13.27,	12.77,	10.47,	1700,	1603
87,	8168,	7886,	8081,	8440,	8906,	8603,	8515,	8321,	8457,	8290,	8803,	8780,	8349,	8966,	14.46,	10.33,	12.07,	0.36,	13.67,	12.16,	10.98,	11.81,	11.50,	10.77,	12.31,	13.32,	12.77,	10.47,	1700,	1604
88,	8220,	7925,	8137,	8483,	8957,	8625,	8547,	8361,	8489,	8338,	8853,	8831,	8393,	9011,	14.46,	10.33,	12.07,	0.36,	13.67,	12.16,	10.98,	11.81,	11.50,	10.77,	12.31,	13.32,	12.79,	10.47,	1701,	1608
89,	8194,	7898,	8123,	8464,	8939,	8612,	8519,	8352,	8491,	8323,	8841,	8822,	8381,	8994,	14.46,	10.33,	12.07,	0.36,	13.67,	12.16,	10.98,	11.81,	11.50,	10.77,	12.31,	13.32,	12.79,	10.47,	1702,	1609
90,	8095,	7814,	8030,	8382,	8862,	8560,	8450,	8252,	8426,	8242,	8769,	8734,	8303,	8914,	14.46,	10.33,	12.07,	0.36,	13.67,	12.16,	10.98,	11.81,	11.50,	10.77,	12.30,	13.32,	12.79,	10.47,	1702,	1613
91,	8083,	7808,	8010,	8352,	8852,	8563,	8461,	8241,	8428,	8236,	8754,	8696,	8283,	8905,	14.46,	10.33,	12.07,	0.36,	13.67,	12.16,	10.98,	11.81,	11.50,	10.77,	12.30,	13.29,	12.79,	10.47,	1703,	1615
92,	8101,	7829,	8029,	8359,	8871,	8580,	8481,	8284,	8452,	8251,	8756,	8701,	8298,	8922,	14.46,	10.33,	12.07,	0.36,	13.67,	12.16,	10.98,	11.81,	11.50,	10.77,	12.30,	13.29,	12.76,	10.47,	1701,	1619
93,	8088,	7814,	8024,	8377,	8867,	8563,	8449,	8248,	8413,	8237,	8760,	8711,	8304,	8913,	14.46,	10.33,	12.07,	0.36,	13.67,	12.16,	10.98,	11.81,	11.50,	10.77,	12.30,	13.29,	12.76,	10.44,	1704,	1621
94,	8145,	7855,	8074,	8440,	8907,	8597,	8473,	8255,	8448,	8289,	8837,	8774,	8364,	8971,	14.46,	10.33,	12.07,	0.36,	13.67,	12.16,	10.98,	11.81,	11.50,	10.77,	12.28,	13.29,	12.76,	10.44,	1702,	1624
95,	8218,	7925,	8132,	8484,	8963,	8668,	8548,	8364,	8571,	8371,	8895,	8840,	8433,	9046,	14.46,	10.33,	12.07,	0.36,	13.67,	12.16,	10.98,	11.81,	11.50,	10.77,	12.28,	13.27,	12.76,	10.44,	1702,	1629
96,	8187,	7904,	8099,	8449,	8936,	8650,	8542,	8391,	8587,	8354,	8848,	8809,	8403,	9014,	14.46,	10.33,	12.07,	0.36,	13.67,	12.16,	10.98,	11.81,	11.50,	10.77,	12.28,	13.27,	12.77,	10.44,	1702,	1631
97,	8142,	7858,	8064,	8419,	8897,	8597,	8508,	8338,	8529,	8300,	8804,	8757,	8353,	8957,	14.46,	10.33,	12.07,	0.36,	13.67,	12.16,	10.98,	11.81,	11.50,	10.77,	12.28,	13.27,	12.77,	10.43,	1703,	1635
98,	8175,	7889,	8103,	8461,	8939,	8635,	8542,	8360,	8549,	8319,	8840,	8780,	8387,	8984,	14.46,	10.33,	12.07,	0.36,	13.67,	12.16,	10.98,	11.81,	11.50,	10.77,	12.30,	13.27,	12.77,	10.43,	1702,	1636
99,	8189,	7911,	8117,	8485,	8971,	8669,	8558,	8388,	8573,	8340,	8861,	8807,	8409,	9011,	14.46,	10.33,	12.07,	0.36,	13.67,	12.16,	10.98,	11.81,	11.50,	10.77,	12.30,	13.30,	12.77,	10.43,	1703,	1638
100,	8146,	7871,	8076,	8440,	8929,	8625,	8521,	8342,	8535,	8309,	8826,	8772,	8358,	8971,	14.46,	10.33,	12.07,	0.36,	13.67,	12.16,	10.98,	11.81,	11.50,	10.77,	12.30,	13.30,	12.76,	10.43,	1703,	1639
101,	8089,	7819,	8027,	8385,	8863,	8568,	8471,	8273,	8488,	8260,	8765,	8715,	8295,	8909,	14.46,	10.33,	12.07,	0.36,	13.67,	12.16,	10.98,	11.81,	11.50,	10.77,	12.30,	13.30,	12.76,	10.47,	1703,	1642
102,	8039,	7792,	7992,	8361,	8833,	8546,	8420,	8211,	8450,	8224,	8719,	8681,	8260,	8865,	14.46,	10.33,	12.07,	0.36,	13.67,	12.16,	10.98,	11.81,	11.50,	10.77,	12.27,	13.30,	12.76,	10.47,	1704,	1645
103,	8057,	7812,	8008,	8380,	8880,	8574,	8429,	8212,	8461,	8234,	8749,	8697,	8280,	8887,	14.46,	10.33,	12.07,	0.36,	13.67,	12.16,	10.98,	11.81,	11.50,	10.77,	12.27,	13.29,	12.76,	10.47,	1705,	1646
104,	8141,	7869,	8069,	8426,	8949,	8644,	8523,	8308,	8548,	8299,	8818,	8752,	8350,	8961,	14.46,	10.33,	12.07,	0.36,	13.67,	12.16,	10.98,	11.81,	11.50,	10.77,	12.27,	13.29,	12.79,	10.47,	1705,	1647
105,	8184,	7912,	8105,	8473,	8969,	8687,	8589,	8393,	8610,	8346,	8845,	8787,	8397,	9000,	14.46,	10.33,	12.07,	0.36,	13.67,	12.16,	10.98,	11.81,	11.50,	10.77,	12.27,	13.29,	12.79,	10.44,	1704,	1648
106,	8140,	7893,	8081,	8471,	8957,	8654,	8551,	8372,	8574,	8318,	8816,	8766,	8367,	8961,	14.46,	10.33,	12.07,	0.36,	13.67,	12.16,	10.98,	11.81,	11.50,	10.77,	12.31,	13.29,	12.79,	10.44,	1705,	1649
107,	8120,	7865,	8063,	8449,	8950,	8625,	8510,	8332,	8540,	8292,	8793,	8748,	8329,	8931,	14.46,	10.33,	12.07,	0.36,	13.67,	12.16,	10.98,	11.81,	11.50,	10.77,	12.31,	13.30,	12.79,	10.44,	1705,	1650
108,	8150,	7888,	8089,	8467,	8944,	8639,	8522,	8336,	8579,	8312,	8805,	8772,	8352,	8961,	14.46,	10.33,	12.07,	0.36,	13.67,	12.16,	10.98,	11.81,	11.50,	10.77,	12.31,	13.30,	12.77,	10.44,	1706,	1650
109,	8168,	7914,	8116,	8494,	8939,	8649,	8529,	8350,	8611,	8325,	8824,	8793,	8388,	8987,	14.46,	10.33,	12.07,	0.36,	13.67,	12.16,	10.98,	11.81,	11.50,	10.77,	12.31,	13.30,	12.77,	10.44,	1706,	1653
110,	8169,	7907,	8111,	8487,	8938,	8638,	8507,	8340,	8594,	8319,	8831,	8792,	8377,	8982,	14.46,	10.33,	12.07,	0.36,	13.67,	12.16,	10.98,	11.81,	11.50,	10.77,	12.31,	13.30,	12.77,	10.44,	1709,	1653
111,	8142,	7880,	8076,	8453,	8912,	8607,	8466,	8280,	8543,	8295,	8803,	8762,	8335,	8955,	14.46,	10.33,	12.07,	0.36,	13.67,	12.16,	10.98,	11.81,	11.50,	10.77,	12.31,	13.30,	12.77,	10.44,	1708,	1656
112,	8089,	7851,	8038,	8421,	8878,	8577,	8432,	8218,	8485,	8245,	8751,	8710,	8303,	8918,	14.46,	10.33,	12.07,	0.36,	13.67,	12.16,	10.98,	11.81,	11.50,	10.77,	12.31,	13.30,	12.74,	10.44,	1709,	1657
113,	8091,	7852,	8047,	8424,	8894,	8591,	8456,	8257,	8505,	8242,	8755,	8713,	8318,	8922,	14.46,	10.33,	12.07,	0.36,	13.67,	12.16,	10.98,	11.81,	11.50,	10.77,	12.31,	13.30,	12.74,	10.43,	1709,	1656
114,	8196,	7923,	8133,	8499,	8981,	8667,	8555,	8394,	8637,	8349,	8856,	8821,	8405,	9011,	14.46,	10.33,	12.07,	0.36,	13.67,	12.16,	10.98,	11.81,	11.50,	10.77,	12.31,	13.30,	12.74,	10.43,	1711,	1657
115,	8263,	7978,	8192,	8556,	9026,	8715,	8612,	8458,	8712,	8416,	8918,	8888,	8468,	9072,	14.46,	10.33,	12.07,	0.36,	13.67,	12.16,	10.98,	11.81,	11.50,	10.77,	12.31,	13.27,	12.74,	10.43,	1711,	1655
116,	8179,	7920,	8126,	8491,	8948,	8652,	8538,	8368,	8618,	8336,	8839,	8803,	8395,	8992,	14.46,	10.33,	12.07,	0.36,	13.67,	12.16,	10.98,	11.81,	11.50,	10.77,	12.31,	13.27,	12.77,	10.43,	1712,	1655
117,	8098,	7860,	8063,	8424,	8881,	8591,	8472,	8296,	8547,	8269,	8773,	8724,	8319,	8916,	14.46,	10.33,	12.07,	0.36,	13.67,	12.16,	10.98,	11.81,	11.50,	10.77,	12.31,	13.27,	12.77,	10.43,	1712,	1654
118,	8118,	7871,	8080,	8436,	8902,	8617,	8495,	8328,	8588,	8299,	8798,	8744,	8342,	8936,	14.46,	10.33,	12.07,	0.36,	13.67,	12.16,	10.98,	11.81,	11.50,	10.77,	12.31,	13.27,	12.77,	10.43,	1714,	1655
119,	8135,	7876,	8090,	8444,	8904,	8628,	8502,	8343,	8614,	8317,	8818,	8756,	8364,	8956,	14.46,	10.33,	12.07,	0.36,	13.67,	12.16,	10.98,	11.81,	11.50,	10.77,	12.31,	13.30,	12.77,	10.43,	1715,	1654
120,	8148,	7890,	8102,	8459,	8918,	8627,	8504,	8360,	8638,	8334,	8840,	8766,	8383,	8975,	14.46,	10.33,	12.07,	0.36,	13.67,	12.16,	10.98,	11.81,	11.50,	10.77,	12.31,	13.30,	12.74,	10.43,	1715,	1655
121,	8172,	7915,	8120,	8483,	8965,	8652,	8530,	8379,	8652,	8354,	8864,	8792,	8405,	8997,	14.46,	10.33,	12.07,	0.36,	13.67,	12.16,	10.98,	11.81,	11.50,	10.77,	12.31,	13.30,	12.74,	10.46,	1717,	1653
122,	8145,	7877,	8081,	8440,	8942,	8637,	8510,	8330,	8598,	8310,	8821,	8769,	8365,	8959,	14.46,	10.33,	12.07,	0.36,	13.67,	12.16,	10.98,	11.81,	11.50,	10.77,	12.30,	13.30,	12.74,	10.46,	1715,	1653
123,	8113,	7843,	8047,	8401,	8892,	8609,	8497,	8330,	8599,	8293,	8790,	8737,	8334,	8934,	14.46,	10.33,	12.07,	0.36,	13.67,	12.16,	10.98,	11.81,	11.50,	10.77,	12.30,	13.29,	12.74,	10.46,	1717,	1651
124,	8148,	7888,	8085,	8448,	8919,	8638,	8540,	8406,	8670,	8347,	8830,	8761,	8371,	8977,	14.46,	10.33,	12.07,	0.36,	13.67,	12.16,	10.98,	11.81,	11.50,	10.77,	12.30,	13.29,	12.74,	10.46,	1717,	1651
125,	8144,	7895,	8085,	8449,	8937,	8639,	8517,	8354,	8629,	8327,	8817,	8755,	8367,	8963,	14.46,	10.33,	12.07,	0.36,	13.67,	12.16,	10.98,	11.81,	11.50,	10.77,	12.30,	13.29,	12.74,	10.44,	1718,	1652
126,	8084,	7838,	8029,	8389,	8899,	8589,	8449,	8247,	8543,	8253,	8762,	8708,	8317,	8896,	14.46,	10.33,	12.07,	0.36,	13.67,	12.16,	10.98,	11.81,	11.50,	10.77,	12.28,	13.29,	12.74,	10.44,	1719,	1650
127,	8100,	7851,	8043,	8405,	8903,	8612,	8489,	8312,	8602,	8282,	8793,	8715,	8335,	8917,	14.46,	10.33,	12.07,	0.36,	13.67,	12.16,	10.98,	11.81,	11.50,	10.77,	12.28,	13.29,	12.74,	10.44,	1717,	1652
0,	8136,	7880,	8083,	8440,	8937,	8644,	8527,	8356,	8632,	8324,	8823,	8754,	8354,	8953,	14.50,	10.33,	12.07,	0.36,	13.67,	12.16,	10.98,	11.81,	11.50,	10.77,	12.28,	13.29,	12.74,	10.44,	1718,	1653
1,	8126,	7873,	8059,	8435,	8915,	8615,	8495,	8327,	8626,	8314,	8820,	8751,	8352,	8945,	14.50,	10.36,	12.07,	0.36,	13.67,	12.16,	10.98,	11.81,	11.50,	10.77,	12.28,	13.29,	12.74,	10.44,	1717,	1652
2,	8160,	7909,	8075,	8464,	8935,	8645,	8533,	8385,	8680,	8347,	8848,	8773,	8381,	8980,	14.50,	10.36,	12.04,	0.36,	13.67,	12.16,	10.98,	11.81,	11.50,	10.77,	12.28,	13.29,	12.74,	10.44,	1717,	1651
3,	8182,	7928,	8092,	8482,	8999,	8689,	8570,	8427,	8698,	8372,	8866,	8798,	8401,	9000,	14.50,	10.36,	12.04,	0.39,	13.67,	12.16,	10.98,	11.81,	11.50,	10.77,	12.28,	13.29,	12.74,	10.44,	1718,	1650
4,	8144,	7897,	8057,	8440,	8982,	8660,	8541,	8391,	8653,	8335,	8836,	8764,	8370,	8970,	14.50,	10.36,	12.04,	0.39,	13.64,	12.16,	10.98,	11.81,	11.50,	10.77,	12.28,	13.29,	12.74,	10.44,	1716,	1649
5,	8088,	7854,	7999,	8383,	8895,	8603,	8493,	8334,	8610,	8274,	8777,	8702,	8319,	8921,	14.50,	10.36,	12.04,	0.39,	13.64,	12.16,	10.98,	11.81,	11.50,	10.77,	12.28,	13.29,	12.74,	10.44,	1718,	1649
6,	8074,	7841,	7987,	8359,	8867,	8598,	8483,	8304,	8594,	8258,	8753,	8684,	8306,	8900,	14.50,	10.36,	12.04,	0.39,	13.64,	12.16,	11.01,	11.81,	11.50,	10.77,	12.28,	13.29,	12.74,	10.44,	1715,	1647
7,	8086,	7849,	8009,	8370,	8899,	8621,	8501,	8309,	8589,	8280,	8774,	8696,	8320,	8912,	14.50,	10.36,	12.04,	0.39,	13.64,	12.16,	11.01,	11.81,	11.50,	10.77,	12.28,	13.29,	12.74,	10.44,	1716,	1648
8,	8103,	7859,	8024,	8396,	8922,	8632,	8524,	8349,	8625,	8308,	8800,	8713,	8341,	8931,	14.50,	10.36,	12.04,	0.39,	13.64,	12.16,	11.01,	11.81,	11.08,	10.77,	12.28,	13.29,	12.74,	10.44,	1715,	1647
9,	8126,	7876,	8044,	8428,	8942,	8644,	8542,	8403,	8702,	8353,	8842,	8755,	8386,	8962,	14.50,	10.36,	12.04,	0.39,	13.64,	12.16,	11.01,	11.81,	11.08,	10.76,	12.28,	13.29,	12.74,	10.44,	1713,	1648
10,	8138,	7890,	8071,	8442,	8955,	8648,	8538,	8415,	8729,	8389,	8884,	8794,	8427,	8985,	14.50,	10.36,	12.04,	0.39,	13.64,	12.16,	11.01,	11.81,	11.08,	10.76,	12.30,	13.29,	12.74,	10.44,	1713,	1647
11,	8134,	7885,	8078,	8431,	8934,	8646,	8529,	8379,	8679,	8375,	8884,	8793,	8414,	8983,	14.50,	10.36,	12.04,	0.39,	13.64,	12.16,	11.01,	11.81,	11.08,	10.76,	12.30,	13.29,	12.74,	10.44,	1711,	1649
12,	8106,	7861,	8041,	8402,	8896,	8638,	8509,	8334,	8617,	8316,	8835,	8748,	8359,	8947,	14.50,	10.36,	12.04,	0.39,	13.64,	12.16,	11.01,	11.81,	11.08,	10.76,	12.30,	13.29,	12.64,	10.44,	1710,	1651
13,	8063,	7834,	7995,	8366,	8879,	8615,	8485,	8305,	8591,	8260,	8791,	8695,	8316,	8903,	14.50,	10.36,	12.04,	0.39,	13.64,	12.16,	11.01,	11.81,	11.08,	10.76,	12.30,	13.29,	12.64,	10.44,	1708,	1652
14,	8066,	7840,	8008,	8365,	8910,	8626,	8502,	8335,	8625,	8272,	8798,	8693,	8323,	8911,	14.50,	10.36,	12.04,	0.39,	13.64,	12.16,	11.01,	11.81,	11.08,	10.76,	12.30,	13.29,	12.64,	10.44,	1708,	1653
15,	8107,	7864,	8046,	8383,	8940,	8652,	8520,	8367,	8657,	8310,	8825,	8724,	8349,	8945,	14.50,	10.36,	12.04,	0.39,	13.64,	12.16,	11.01,	11.81,	11.08,	10.76,	12.30,	13.27,	12.64,	10.44,	1706,	1654
16,	8103,	7860,	8031,	8376,	8925,	8635,	8498,	8338,	8640,	8304,	8819,	8731,	8351,	8943,	14.50,	10.36,	12.04,	0.39,	13.64,	12.16,	11.01,	11.81,	11.08,	10.76,	12.30,	13.27,	12.64,	10.44,	1706,	1654
17,	8068,	7840,	7991,	8347,	8909,	8600,	8477,	8303,	8623,	8282,	8802,	8714,	8330,	8914,	14.50,	10.36,	12.04,	0.39,	13.64,	12.16,	11.01,	11.81,	11.08,	10.76,	12.30,	13.27,	12.64,	10.44,	1704,	1655
18,	8060,	7836,	7996,	8335,	8891,	8586,	8473,	8297,	8618,	8289,	8810,	8709,	8322,	8909,	14.50,	10.36,	12.04,	0.39,	13.64,	12.16,	11.01,	11.81,	11.08,	10.76,	12.30,	13.27,	12.64,	10.44,	1703,	1658
19,	8081,	7844,	8016,	8359,	8856,	8587,	8475,	8295,	8608,	8301,	8824,	8723,	8334,	8918,	14.50,	10.36,	12.04,	0.39,	13.64,	12.16,	11.01,	11.81,	11.08,	10.76,	12.30,	13.27,	12.64,	10.44,	1703,	1660
20,	8092,	7844,	8009,	8373,	8865,	8604,	8485,	8302,	8621,	8301,	8822,	8729,	8347,	8919,	14.50,	10.36,	12.04,	0.39,	13.64,	12.16,	11.01,	11.81,	11.08,	10.76,	12.30,	13.27,	12.64,	10.44,	1701,	1664
21,	8088,	7844,	8016,	8369,	8920,	8627,	8507,	8341,	8648,	8311,	8812,	8717,	8348,	8929,	14.50,	10.36,	12.04,	0.39,	13.64,	12.16,	11.01,	11.81,	11.08,	10.76,	12.30,	13.27,	12.64,	10.44,	1701,	1666
22,	8111,	7867,	8058,	8394,	8951,	8654,	8540,	8383,	8677,	8337,	8831,	8731,	8373,	8957,	14.50,	10.36,	12.04,	0.39,	13.64,	12.16,	11.01,	11.81,	11.08,	10.76,	12.30,	13.27,	12.64,	10.44,	1700,	1668
23,	8132,	7894,	8077,	8425,	8946,	8682,	8562,	8405,	8709,	8354,	8869,	8768,	8400,	8973,	14.50,	10.36,	12.04,	0.39,	13.64,	12.16,	11.01,	11.81,	11.08,	10.76,	12.30,	13.27,	12.64,	10.44,	1700,	1669
24,	8088,	7865,	8034,	8389,	8914,	8657,	8531,	8369,	8681,	8320,	8845,	8737,	8351,	8935,	14.50,	10.36,	12.04,	0.39,	13.64,	12.16,	11.01,	11.81,	11.08,	10.76,	12.30,	13.27,	12.64,	10.44,	1700,	1670
25,	8053,	7831,	8005,	8343,	8903,	8621,	8497,	8323,	8647,	8287,	8803,	8685,	8303,	8907,	14.50,	10.36,	12.04,	0.39,	13.64,	12.16,	11.01,	11.81,	11.08,	10.76,	12.30,	13.27,	12.64,	10.44,	1700,	1670
26,	8076,	7845,	8023,	8349,	8912,	8626,	8499,	8320,	8658,	8291,	8817,	8701,	8323,	8922,	14.50,	10.36,	12.04,	0.39,	13.64,	12.16,	11.01,	11.81,	11.08,	10.76,	12.30,	13.27,	12.64,	10.44,	1700,	1669
27,	8072,	7852,	8017,	8349,	8883,	8610,	8485,	8298,	8625,	8277,	8826,	8708,	8323,	8917,	14.50,	10.36,	12.04,	0.39,	13.64,	12.16,	11.01,	11.81,	11.08,	10.76,	12.30,	13.27,	12.64,	10.44,	1700,	1670
28,	8062,	7853,	8004,	8334,	8871,	8585,	8466,	8269,	8583,	8275,	8822,	8694,	8317,	8911,	14.50,	10.36,	12.04,	0.39,	13.64,	12.16,	11.01,	11.81,	11.08,	10.76,	12.30,	13.27,	12.64,	10.44,	1701,	1673
29,	8090,	7865,	8021,	8354,	8911,	8596,	8470,	8277,	8609,	8289,	8845,	8716,	8343,	8930,	14.50,	10.36,	12.04,	0.39,	13.64,	12.16,	11.01,	11.81,	11.08,	10.76,	12.30,	13.27,	12.64,	10.44,	1702,	1674
30,	8102,	7859,	8037,	8394,	8907,	8608,	8477,	8288,	8632,	8285,	8860,	8734,	8356,	8941,	14.50,	10.36,	12.04,	0.39,	13.64,	12.16,	11.01,	11.81,	11.08,	10.76,	12.30,	13.27,	12.64,	10.44,	1701,	1676
31,	8091,	7852,	8027,	8402,	8873,	8602,	8483,	8290,	8618,	8281,	8852,	8720,	8343,	8936,	14.50,	10.36,	12.04,	0.39,	13.64,	12.16,	11.01,	11.81,	11.08,	10.76,	12.30,	13.27,	12.64,	10.44,	1702,	1676
32,	8092,	7865,	8026,	8371,	8882,	8608,	8491,	8301,	8616,	8295,	8850,	8716,	8346,	8937,	14.50,	10.36,	12.04,	0.39,	13.64,	12.16,	11.01,	11.81,	11.08,	10.76,	12.30,	13.27,	12.64,	10.44,	1702,	1677
33,	8108,	7879,	8049,	8373,	8922,	8631,	8503,	8312,	8632,	8303,	8856,	8732,	8357,	8952,	14.50,	10.36,	12.04,	0.39,	13.64,	12.16,	11.01,	11.81,	11.08,	10.76,	12.30,	13.27,	12.64,	10.44,	1703,	1677
34,	8117,	7886,	8060,	8406,	8938,	8645,	8509,	8322,	8654,	8297,	8852,	8737,	8360,	8960,	14.50,	10.36,	12.04,	0.39,	13.64,	12.16,	11.01,	11.81,	11.08,	10.76,	12.30,	13.27,	12.64,	10.44,	1702,	1677
35,	8097,	7875,	8039,	8388,	8912,	8619,	8483,	8309,	8644,	8279,	8837,	8721,	8340,	8934,	14.50,	10.36,	12.04,	0.39,	13.64,	12.16,	11.01,	11.81,	11.08,	10.76,	12.30,	13.27,	12.64,	10.44,	1704,	1678
36,	8081,	7863,	8027,	8367,	8911,	8594,	8461,	8268,	8592,	8260,	8848,	8723,	8329,	8918,	14.50,	10.36,	12.04,	0.39,	13.64,	12.16,	11.01,	11.81,	11.08,	10.76,	12.30,	13.27,	12.64,	10.44,	1703,	1678
37,	8105,	7878,	8052,	8401,	8940,	8614,	8481,	8273,	8585,	8276,	8885,	8755,	8358,	8949,	14.50,	10.36,	12.04,	0.39,	13.64,	12.16,	11.01,	11.81,	11.08,	10.76,	12.30,	13.27,	12.64,	10.44,	1703,	1681
38,	8114,	7880,	8060,	8408,	8913,	8620,	8484,	8301,	8614,	8294,	8887,	8755,	8367,	8958,	14.50,	10.36,	12.04,	0.39,	13.64,	12.16,	11.01,	11.81,	11.08,	10.76,	12.30,	13.27,	12.64,	10.44,	1704,	1678
39,	8078,	7847,	8034,	8371,	8866,	8589,	8455,	8278,	8601,	8281,	8855,	8713,	8341,	8931,	14.50,	10.36,	12.04,	0.39,	13.64,	12.16,	11.01,	11.81,	11.08,	10.76,	12.30,	13.27,	12.64,	10.44,	1703,	1680
40,	8072,	7842,	8028,	8370,	8885,	8586,	8459,	8281,	8605,	8286,	8847,	8703,	8334,	8925,	14.50,	10.36,	12.04,	0.39,	13.64,	12.16,	11.01,	11.81,	11.08,	10.76,	12.30,	13.27,	12.64,	10.44,	1704,	1680
41,	8098,	7869,	8047,	8390,	8900,	8608,	8488,	8331,	8642,	8308,	8861,	8730,	8352,	8939,	14.50,	10.36,	12.04,	0.39,	13.64,	12.16,	11.01,	11.81,	11.08,	10.76,	12.30,	13.27,	12.64,	10.44,	1703,	1680
42,	8088,	7857,	8045,	8368,	8880,	8598,	8474,	8312,	8612,	8289,	8847,	8724,	8344,	8929,	14.50,	10.36,	12.04,	0.39,	13.64,	12.16,	11.01,	11.81,	11.08,	10.76,	12.30,	13.27,	12.64,	10.44,	1704,	1681
43,	8059,	7829,	8023,	8357,	8893,	8579,	8450,	8262,	8570,	8250,	8820,	8702,	8318,	8911,	14.50,	10.36,	12.04,	0.39,	13.64,	12.16,	11.01,	11.81,	11.08,	10.76,	12.30,	13.27,	12.64,	10.44,	1704,	1680
44,	8076,	7860,	8029,	8385,	8919,	8607,	8471,	8284,	8608,	8262,	8829,	8719,	8328,	8921,	14.50,	10.36,	12.04,	0.39,	13.64,	12.16,	11.01,	11.81,	11.08,	10.76,	12.30,	13.27,	12.64,	10.44,	1703,	1680
45,	8125,	7901,	8065,	8415,	8923,	8649,	8505,	8333,	8646,	8303,	8869,	8759,	8369,	8954,	14.50,	10.36,	12.04,	0.39,	13.64,	12.16,	11.01,	11.81,	11.08,	10.76,	12.30,	13.27,	12.64,	10.44,	1702,	1680
46,	8135,	7892,	8079,	8428,	8924,	8632,	8502,	8332,	8623,	8307,	8882,	8769,	8388,	8972,	14.50,	10.36,	12.04,	0.39,	13.64,	12.16,	11.01,	11.81,	11.08,	10.76,	12.30,	13.27,	12.64,	10.44,	1702,	1681
47,	8113,	7881,	8065,	8430,	8927,	8599,	8487,	8299,	8598,	8285,	8864,	8757,	8370,	8966,	14.50,	10.36,	12.04,	0.39,	13.64,	12.16,	11.01,	11.81,	11.08,	10.76,	12.30,	13.27,	12.64,	10.44,	1701,	1682
48,	8097,	7877,	8049,	8411,	8907,	8601,	8483,	8277,	8590,	8279,	8845,	8738,	8349,	8948,	14.50,	10.36,	12.04,	0.39,	13.64,	12.16,	11.01,	11.81,	11.08,	10.76,	12.30,	13.27,	12.64,	10.44,	1701,	1684
49,	8077,	7841,	8029,	8367,	8892,	8590,	8469,	8280,	8581,	8280,	8828,	8709,	8333,	8924,	14.50,	10.36,	12.04,	0.39,	13.64,	12.16,	11.01,	11.81,	11.08,	10.76,	12.30,	13.27,	12.64,	10.44,	1701,	1684
50,	8063,	7829,	8019,	8332,	8894,	8572,	8463,	8301,	8593,	8276,	8815,	8706,	8333,	8917,	14.50,	10.36,	12.04,	0.39,	13.64,	12.16,	11.01,	11.81,	11.08,	10.76,	12.30,	13.27,	12.64,	10.44,	1699,	1687
51,	8079,	7854,	8025,	8324,	8893,	8589,	8479,	8312,	8613,	8280,	8814,	8726,	8344,	8933,	14.50,	10.36,	12.04,	0.39,	13.64,	12.16,	11.01,	11.81,	11.08,	10.76,	12.30,	13.27,	12.64,	10.44,	1700,	1686
52,	8105,	7859,	8034,	8346,	8902,	8610,	8487,	8316,	8611,	8295,	8832,	8733,	8352,	8939,	14.50,	10.36,	12.04,	0.39,	13.64,	12.16,	11.01,	11.81,	11.08,	10.76,	12.30,	13.27,	12.64,	10.44,	1699,	1687
53,	8097,	7850,	8041,	8373,	8913,	8604,	8482,	8306,	8607,	8304,	8845,	8732,	8350,	8937,	14.50,	10.36,	12.04,	0.39,	13.64,	12.16,	11.01,	11.81,	11.08,	10.76,	12.30,	13.27,	12.64,	10.44,	1700,	1686
54,	8096,	7866,	8053,	8378,	8928,	8604,	8496,	8311,	8632,	8303,	8840,	8749,	8348,	8949,	14.50,	10.36,	12.04,	0.39,	13.64,	12.16,	11.01,	11.81,	11.08,	10.76,	12.30,	13.27,	12.64,	10.44,	1699,	1685
55,	8121,	7893,	8068,	8384,	8948,	8625,	8521,	8346,	8655,	8316,	8857,	8765,	8370,	8969,	14.50,	10.36,	12.04,	0.39,	13.64,	12.16,	11.01,	11.81,	11.08,	10.76,	12.30,	13.27,	12.64,	10.44,	1699,	1686
56,	8102,	7877,	8045,	8375,	8927,	8621,	8505,	8330,	8621,	8309,	8848,	8734,	8360,	8951,	14.50,	10.36,	12.04,	0.39,	13.64,	12.16,	11.01,	11.81,	11.08,	10.76,	12.30,	13.27,	12.64,	10.44,	1698,	1685
57,	8045,	7833,	7994,	8344,	8879,	8590,	8465,	8272,	8571,	8262,	8790,	8688,	8311,	8905,	14.50,	10.36,	12.04,	0.39,	13.64,	12.16,	11.01,	11.81,	11.08,	10.76,	12.30,	13.27,	12.64,	10.44,	1698,	1684
58,	8028,	7826,	7988,	8337,	8881,	8583,	8473,	8281,	8579,	8253,	8783,	8682,	8306,	8893,	14.50,	10.36,	12.04,	0.39,	13.64,	12.16,	11.01,	11.81,	11.08,	10.76,	12.30,	13.27,	12.64,	10.44,	1697,	1684
59,	8050,	7855,	8020,	8361,	8908,	8597,	8505,	8322,	8617,	8292,	8828,	8700,	8344,	8918,	14.50,	10.36,	12.04,	0.39,	13.64,	12.16,	11.01,	11.81,	11.08,	10.76,	12.30,	13.27,	12.64,	10.44,	1695,	1685
60,	8055,	7856,	8020,	8373,	8908,	8584,	8484,	8293,	8600,	8296,	8822,	8695,	8348,	8925,	14.50,	10.36,	12.04,	0.39,	13.64,	12.16,	11.01,	11.81,	11.08,	10.76,	12.30,	13.27,	12.64,	10.44,	1696,	1684
61,	8047,	7836,	8002,	8363,	8904,	8565,	8451,	8257,	8561,	8276,	8803,	8681,	8337,	8909,	14.50,	10.36,	12.04,	0.39,	13.64,	12.16,	11.01,	11.81,	11.08,	10.76,	12.30,	13.27,	12.64,	10.44,	1695,	1686
62,	8043,	7829,	7994,	8347,	8886,	8571,	8468,	8292,	8581,	8287,	8816,	8677,	8336,	8906,	14.50,	10.36,	12.04,	0.39,	13.64,	12.16,	11.01,	11.81,	11.08,	10.76,	12.30,	13.27,	12.64,	10.44,	1697,	1686
63,	8037,	7823,	7985,	8339,	8876,	8579,	8488,	8320,	8602,	8286,	8805,	8671,	8321,	8905,	14.50,	10.36,	12.04,	0.39,	13.64,	12.16,	11.01,	11.81,	11.08,	10.76,	12.30,	13.27,	12.64,	10.44,	1696,	1686
64,	8030,	7813,	7976,	8334,	8885,	8583,	8476,	8291,	8582,	8266,	8766,	8648,	8306,	8890,	14.46,	10.36,	12.04,	0.39,	13.64,	12.16,	11.01,	11.81,	11.08,	10.76,	12.30,	13.27,	12.64,	10.44,	1697,	1686
65,	8031,	7816,	7979,	8319,	8885,	8603,	8475,	8282,	8589,	8277,	8755,	8639,	8309,	8890,	14.46,	10.36,	12.04,	0.39,	13.64,	12.16,	11.01,	11.81,	11.08,	10.76,	12.30,	13.27,	12.64,	10.44,	1697,	1685
66,	8039,	7831,	7992,	8317,	8886,	8618,	8496,	8314,	8606,	8290,	8769,	8657,	8316,	8903,	14.46,	10.36,	12.03,	0.39,	13.64,	12.16,	11.01,	11.81,	11.08,	10.76,	12.30,	13.27,	12.64,	10.44,	1697,	1685
67,	8045,	7831,	8003,	8329,	8897,	8596,	8495,	8316,	8573,	8283,	8776,	8669,	8325,	8906,	14.46,	10.36,	12.03,	0.40,	13.64,	12.16,	11.01,	11.81,	11.08,	10.76,	12.30,	13.27,	12.64,	10.44,	1697,	1685
68,	8071,	7838,	8025,	8360,	8922,	8590,	8495,	8309,	8579,	8307,	8807,	8692,	8360,	8931,	14.46,	10.36,	12.03,	0.40,	13.67,	12.16,	11.01,	11.81,	11.08,	10.76,	12.30,	13.27,	12.64,	10.44,	1697,	1684
69,	8104,	7866,	8052,	8394,	8932,	8624,	8522,	8348,	8647,	8345,	8854,	8738,	8397,	8969,	14.46,	10.36,	12.03,	0.40,	13.67,	12.18,	11.01,	11.81,	11.08,	10.76,	12.30,	13.27,	12.64,	10.44,	1697,	1682
70,	8089,	7858,	8039,	8374,	8892,	8618,	8520,	8357,	8639,	8329,	8830,	8722,	8373,	8952,	14.46,	10.36,	12.03,	0.40,	13.67,	12.18,	10.96,	11.81,	11.08,	10.76,	12.30,	13.27,	12.64,	10.44,	1697,	1681
71,	8053,	7823,	8004,	8330,	8868,	8577,	8488,	8312,	8583,	8294,	8774,	8666,	8328,	8910,	14.46,	10.36,	12.03,	0.40,	13.67,	12.18,	10.96,	11.73,	11.08,	10.76,	12.30,	13.27,	12.64,	10.44,	1696,	1680
72,	8060,	7831,	8008,	8335,	8909,	8590,	8491,	8308,	8613,	8317,	8786,	8680,	8347,	8919,	14.46,	10.36,	12.03,	0.40,	13.67,	12.18,	10.96,	11.73,	11.13,	10.76,	12.30,	13.27,	12.64,	10.44,	1694,	1680
73,	8080,	7860,	8029,	8363,	8938,	8621,	8514,	8344,	8657,	8349,	8812,	8719,	8377,	8945,	14.46,	10.36,	12.03,	0.40,	13.67,	12.18,	10.96,	11.73,	11.13,	10.76,	12.30,	13.27,	12.64,	10.44,	1696,	1681
74,	8059,	7841,	8003,	8348,	8894,	8592,	8496,	8331,	8611,	8319,	8776,	8690,	8338,	8924,	14.46,	10.36,	12.03,	0.40,	13.67,	12.18,	10.96,	11.73,	11.13,	10.76,	12.27,	13.27,	12.64,	10.44,	1695,	1681
75,	8024,	7798,	7965,	8310,	8852,	8546,	8459,	8285,	8550,	8275,	8747,	8648,	8295,	8885,	14.46,	10.36,	12.03,	0.40,	13.67,	12.18,	10.96,	11.73,	11.13,	10.76,	12.27,	13.32,	12.64,	10.44,	1694,	1682
76,	8027,	7801,	7976,	8324,	8867,	8563,	8465,	8294,	8573,	8295,	8778,	8657,	8324,	8892,	14.46,	10.36,	12.03,	0.40,	13.67,	12.18,	10.96,	11.73,	11.13,	10.76,	12.27,	13.32,	12.64,	10.44,	1694,	1681
77,	8048,	7835,	8009,	8362,	8903,	8603,	8499,	8350,	8625,	8337,	8793,	8676,	8358,	8920,	14.46,	10.36,	12.03,	0.40,	13.67,	12.18,	10.96,	11.73,	11.13,	10.76,	12.27,	13.32,	12.64,	10.47,	1693,	1682
78,	8041,	7831,	7994,	8342,	8900,	8591,	8498,	8355,	8616,	8322,	8758,	8664,	8337,	8913,	14.46,	10.36,	12.03,	0.40,	13.67,	12.18,	10.96,	11.73,	11.13,	10.76,	12.30,	13.32,	12.64,	10.47,	1693,	1682
79,	8014,	7794,	7955,	8306,	8877,	8559,	8471,	8305,	8578,	8292,	8744,	8643,	8309,	8886,	14.46,	10.36,	12.03,	0.40,	13.67,	12.18,	10.96,	11.73,	11.13,	10.76,	12.30,	13.32,	12.64,	10.47,	1693,	1684
80,	8009,	7782,	7953,	8312,	8889,	8560,	8465,	8276,	8567,	8290,	8750,	8636,	8299,	8876,	14.46,	10.36,	12.03,	0.40,	13.67,	12.18,	10.96,	11.73,	11.13,	10.76,	12.30,	13.32,	12.64,	10.47,	1693,	1684
81,	8021,	7793,	7964,	8318,	8886,	8567,	8469,	8275,	8567,	8281,	8732,	8641,	8295,	8879,	14.46,	10.36,	12.03,	0.40,	13.67,	12.18,	10.96,	11.73,	11.13,	10.76,	12.30,	13.32,	12.64,	10.44,	1692,	1684
82,	8041,	7808,	7967,	8328,	8874,	8574,	8480,	8296,	8580,	8285,	8733,	8649,	8312,	8892,	14.46,	10.36,	12.03,	0.40,	13.67,	12.18,	10.96,	11.73,	11.13,	10.76,	12.27,	13.32,	12.64,	10.44,	1693,	1683
83,	8080,	7844,	8001,	8368,	8907,	8605,	8525,	8364,	8630,	8338,	8777,	8679,	8355,	8932,	14.46,	10.36,	12.03,	0.40,	13.67,	12.18,	10.96,	11.73,	11.13,	10.76,	12.27,	13.29,	12.64,	10.44,	1692,	1683
84,	8106,	7863,	8025,	8375,	8936,	8624,	8551,	8395,	8647,	8360,	8792,	8697,	8370,	8954,	14.46,	10.36,	12.03,	0.40,	13.67,	12.18,	10.96,	11.73,	11.13,	10.76,	12.27,	13.29,	12.67,	10.44,	1692,	1683
85,	8074,	7836,	7991,	8352,	8922,	8607,	8520,	8340,	8594,	8311,	8761,	8667,	8337,	8921,	14.46,	10.36,	12.03,	0.40,	13.67,	12.18,	10.96,	11.73,	11.13,	10.76,	12.27,	13.29,	12.67,	10.43,	1692,	1684
86,	8038,	7817,	7964,	8346,	8907,	8590,	8497,	8299,	8553,	8286,	8741,	8641,	8312,	8894,	14.46,	10.36,	12.03,	0.40,	13.67,	12.18,	10.96,	11.73,	11.13,	10.76,	12.28,	13.29,	12.67,	10.43,	1692,	1683
87,	8037,	7821,	7973,	8333,	8914,	8585,	8506,	8305,	8555,	8298,	8744,	8647,	8309,	8893,	14.46,	10.36,	12.03,	0.40,	13.67,	12.18,	10.96,	11.73,	11.13,	10.76,	12.28,	13.30,	12.67,	10.43,	1691,	1683
88,	8032,	7808,	7972,	8321,	8919,	8584,	8501,	8298,	8568,	8294,	8744,	8643,	8314,	8882,	14.46,	10.36,	12.03,	0.40,	13.67,	12.18,	10.96,	11.73,	11.13,	10.76,	12.28,	13.30,	12.64,	10.43,	1692,	1682
89,	8020,	7792,	7953,	8333,	8898,	8573,	8469,	8278,	8563,	8276,	8726,	8629,	8312,	8869,	14.46,	10.36,	12.03,	0.40,	13.67,	12.18,	10.96,	11.73,	11.13,	10.76,	12.28,	13.30,	12.64,	10.44,	1690,	1681
90,	8020,	7799,	7947,	8334,	8868,	8567,	8467,	8279,	8542,	8266,	8714,	8628,	8306,	8876,	14.46,	10.36,	12.03,	0.40,	13.67,	12.18,	10.96,	11.73,	11.13,	10.76,	12.31,	13.30,	12.64,	10.44,	1691,	1679
91,	8021,	7802,	7955,	8314,	8879,	8575,	8483,	8289,	8538,	8268,	8721,	8624,	8293,	8874,	14.46,	10.36,	12.03,	0.40,	13.67,	12.18,	10.96,	11.73,	11.13,	10.76,	12.31,	13.32,	12.64,	10.44,	1689,	1681
92,	8013,	7790,	7956,	8310,	8899,	8571,	8464,	8269,	8529,	8262,	8715,	8606,	8280,	8861,	14.46,	10.36,	12.03,	0.40,	13.67,	12.18,	10.96,	11.73,	11.13,	10.76,	12.31,	13.32,	12.62,	10.44,	1691,	1681
93,	8019,	7799,	7958,	8330,	8874,	8563,	8448,	8245,	8504,	8255,	8707,	8605,	8291,	8875,	14.46,	10.36,	12.03,	0.40,	13.67,	12.18,	10.96,	11.73,	11.13,	10.76,	12.31,	13.32,	12.62,	10.43,	1689,	1681
94,	8047,	7824,	7976,	8359,	8867,	8584,	8479,	8267,	8523,	8279,	8736,	8624,	8326,	8907,	14.46,	10.36,	12.03,	0.40,	13.67,	12.18,	10.96,	11.73,	11.13,	10.76,	12.31,	13.32,	12.62,	10.43,	1689,	1682
95,	8073,	7831,	7992,	8372,	8890,	8608,	8510,	8309,	8575,	8321,	8764,	8647,	8348,	8917,	14.46,	10.36,	12.03,	0.40,	13.67,	12.18,	10.96,	11.73,	11.13,	10.76,	12.31,	13.30,	12.62,	10.43,	1689,	1678
96,	8072,	7825,	7981,	8349,	8884,	8601,	8506,	8325,	8585,	8323,	8738,	8644,	8333,	8908,	14.46,	10.36,	12.03,	0.40,	13.67,	12.18,	10.96,	11.73,	11.13,	10.76,	12.31,	13.30,	12.65,	10.43,	1687,	1678
97,	8042,	7811,	7954,	8324,	8860,	8585,	8500,	8307,	8558,	8288,	8707,	8610,	8309,	8889,	14.46,	10.36,	12.03,	0.40,	13.67,	12.18,	10.96,	11.73,	11.13,	10.76,	12.31,	13.30,	12.65,	10.43,	1687,	1676
98,	8014,	7780,	7939,	8318,	8851,	8572,	8489,	8292,	8544,	8279,	8722,	8585,	8303,	8869,	14.46,	10.36,	12.03,	0.40,	13.67,	12.18,	10.96,	11.73,	11.13,	10.76,	12.28,	13.30,	12.65,	10.43,	1685,	1674
99,	8012,	7759,	7933,	8310,	8845,	8561,	8472,	8316,	8567,	8304,	8739,	8590,	8306,	8866,	14.46,	10.36,	12.03,	0.40,	13.67,	12.18,	10.96,	11.73,	11.13,	10.76,	12.28,	13.27,	12.65,	10.43,	1685,	1671
100,	8032,	7783,	7943,	8313,	8845,	8569,	8474,	8324,	8585,	8315,	8739,	8606,	8318,	8882,	14.46,	10.36,	12.03,	0.40,	13.67,	12.18,	10.96,	11.73,	11.13,	10.76,	12.28,	13.27,	12.65,	10.43,	1682,	1669
101,	8034,	7799,	7947,	8320,	8850,	8581,	8479,	8282,	8542,	8290,	8733,	8596,	8316,	8883,	14.46,	10.36,	12.03,	0.40,	13.67,	12.18,	10.96,	11.73,	11.13,	10.76,	12.28,	13.27,	12.65,	10.47,	1682,	1664
102,	8006,	7776,	7921,	8301,	8846,	8577,	8476,	8252,	8495,	8265,	8708,	8561,	8284,	8861,	14.46,	10.36,	12.03,	0.40,	13.67,	12.18,	10.96,	11.73,	11.13,	10.76,	12.27,	13.27,	12.65,	10.47,	1680,	1661
103,	8004,	7777,	7907,	8284,	8855,	8565,	8475,	8271,	8514,	8274,	8699,	8564,	8281,	8856,	14.46,	10.36,	12.03,	0.40,	13.67,	12.18,	10.96,	11.73,	11.13,	10.76,	12.27,	13.32,	12.65,	10.47,	1679,	1657
104,	8010,	7795,	7913,	8284,	8867,	8560,	8464,	8259,	8515,	8278,	8715,	8579,	8302,	8857,	14.46,	10.36,	12.03,	0.40,	13.67,	12.18,	10.96,	11.73,	11.13,	10.76,	12.27,	13.32,	12.62,	10.47,	1677,	1654
105,	8001,	7790,	7925,	8302,	8861,	8583,	8477,	8259,	8509,	8278,	8720,	8572,	8306,	8853,	14.46,	10.36,	12.03,	0.40,	13.67,	12.18,	10.96,	11.73,	11.13,	10.76,	12.27,	13.32,	12.62,	10.44,	1675,	1654
106,	8021,	7801,	7949,	8337,	8867,	8617,	8523,	8342,	8584,	8323,	8728,	8596,	8325,	8880,	14.46,	10.36,	12.03,	0.40,	13.67,	12.18,	10.96,	11.73,	11.13,	10.76,	12.31,	13.32,	12.62,	10.44,	1673,	1651
107,	8054,	7831,	7950,	8338,	8883,	8612,	8519,	8367,	8610,	8357,	8756,	8636,	8351,	8912,	14.46,	10.36,	12.03,	0.40,	13.67,	12.18,	10.96,	11.73,	11.13,	10.76,	12.31,	13.32,	12.62,	10.44,	1670,	1652
108,	8044,	7823,	7928,	8319,	8869,	8582,	8472,	8291,	8523,	8318,	8763,	8625,	8335,	8893,	14.46,	10.36,	12.03,	0.40,	13.67,	12.18,	10.96,	11.73,	11.13,	10.76,	12.31,	13.32,	12.62,	10.44,	1671,	1652
109,	8013,	7790,	7931,	8336,	8855,	8569,	8459,	8265,	8497,	8277,	8737,	8593,	8303,	8858,	14.46,	10.36,	12.03,	0.40,	13.67,	12.18,	10.96,	11.73,	11.13,	10.76,	12.31,	13.32,	12.62,	10.47,	1669,	1654
110,	8023,	7792,	7963,	8364,	8881,	8579,	8482,	8322,	8575,	8309,	8741,	8603,	8313,	8874,	14.46,	10.36,	12.03,	0.40,	13.67,	12.18,	10.96,	11.73,	11.13,	10.76,	12.30,	13.32,	12.62,	10.47,	1669,	1657
111,	8056,	7825,	7980,	8372,	8900,	8601,	8510,	8349,	8602,	8345,	8775,	8640,	8336,	8907,	14.46,	10.36,	12.03,	0.40,	13.67,	12.18,	10.96,	11.73,	11.13,	10.76,	12.30,	13.30,	12.62,	10.47,	1668,	1660
112,	8051,	7827,	7969,	8361,	8873,	8611,	8530,	8313,	8542,	8310,	8765,	8638,	8322,	8892,	14.46,	10.36,	12.03,	0.40,	13.67,	12.18,	10.96,	11.73,	11.13,	10.76,	12.30,	13.30,	12.65,	10.47,	1668,	1663
113,	8011,	7788,	7934,	8329,	8849,	8599,	8525,	8277,	8498,	8265,	8721,	8585,	8289,	8848,	14.46,	10.36,	12.03,	0.40,	13.67,	12.18,	10.96,	11.73,	11.13,	10.76,	12.30,	13.30,	12.65,	10.44,	1668,	1665
114,	7994,	7775,	7902,	8301,	8861,	8599,	8518,	8283,	8515,	8267,	8706,	8551,	8278,	8837,	14.46,	10.36,	12.03,	0.40,	13.67,	12.18,	10.96,	11.73,	11.13,	10.76,	12.30,	13.30,	12.65,	10.44,	1668,	1667
115,	8007,	7788,	7902,	8305,	8885,	8609,	8520,	8316,	8544,	8279,	8723,	8567,	8286,	8856,	14.46,	10.36,	12.03,	0.40,	13.67,	12.18,	10.96,	11.73,	11.13,	10.76,	12.30,	13.27,	12.65,	10.44,	1667,	1665
116,	8021,	7789,	7924,	8330,	8887,	8608,	8509,	8316,	8537,	8277,	8737,	8589,	8294,	8867,	14.46,	10.36,	12.03,	0.40,	13.67,	12.18,	10.96,	11.73,	11.13,	10.76,	12.30,	13.27,	12.64,	10.44,	1667,	1664
117,	8030,	7788,	7940,	8343,	8881,	8603,	8502,	8326,	8543,	8291,	8730,	8595,	8304,	8871,	14.46,	10.36,	12.03,	0.40,	13.67,	12.18,	10.96,	11.73,	11.13,	10.76,	12.30,	13.27,	12.64,	10.46,	1669,	1662
118,	8034,	7803,	7943,	8327,	8878,	8604,	8503,	8368,	8584,	8314,	8722,	8597,	8313,	8879,	14.46,	10.36,	12.03,	0.40,	13.67,	12.18,	10.96,	11.73,	11.13,	10.76,	12.31,	13.27,	12.64,	10.46,	1668,	1662
119,	8046,	7816,	7956,	8325,	8881,	8601,	8489,	8350,	8584,	8323,	8744,	8614,	8318,	8889,	14.46,	10.36,	12.03,	0.40,	13.67,	12.18,	10.96,	11.73,	11.13,	10.76,	12.31,	13.29,	12.64,	10.46,	1669,	1662
120,	8046,	7802,	7962,	8351,	8877,	8579,	8459,	8273,	8528,	8307,	8757,	8617,	8310,	8878,	14.46,	10.36,	12.03,	0.40,	13.67,	12.18,	10.96,	11.73,	11.13,	10.76,	12.31,	13.29,	12.67,	10.46,	1668,	1664
121,	8010,	7772,	7933,	8337,	8853,	8555,	8446,	8241,	8491,	8267,	8731,	8579,	8283,	8853,	14.46,	10.36,	12.03,	0.40,	13.67,	12.18,	10.96,	11.73,	11.13,	10.76,	12.31,	13.29,	12.67,	10.46,	1669,	1667
122,	7985,	7756,	7906,	8304,	8835,	8561,	8460,	8262,	8498,	8253,	8707,	8551,	8271,	8839,	14.46,	10.36,	12.03,	0.40,	13.67,	12.18,	10.96,	11.73,	11.13,	10.76,	12.27,	13.29,	12.67,	10.46,	1669,	1668
123,	7998,	7763,	7911,	8317,	8847,	8578,	8472,	8282,	8513,	8281,	8722,	8571,	8281,	8844,	14.46,	10.36,	12.03,	0.40,	13.67,	12.18,	10.96,	11.73,	11.13,	10.76,	12.27,	13.27,	12.67,	10.46,	1668,	1670
124,	8008,	7775,	7915,	8335,	8867,	8575,	8476,	8310,	8537,	8292,	8729,	8590,	8284,	8855,	14.46,	10.36,	12.03,	0.40,	13.67,	12.18,	10.96,	11.73,	11.13,	10.76,	12.27,	13.27,	12.62,	10.46,	1668,	1670
125,	8020,	7795,	7924,	8341,	8875,	8586,	8490,	8340,	8562,	8290,	8722,	8598,	8299,	8872,	14.46,	10.36,	12.03,	0.40,	13.67,	12.18,	10.96,	11.73,	11.13,	10.76,	12.27,	13.27,	12.62,	10.46,	1667,	1669
126,	8047,	7817,	7943,	8357,	8890,	8609,	8504,	8349,	8565,	8310,	8739,	8608,	8318,	8894,	14.46,	10.36,	12.03,	0.40,	13.67,	12.18,	10.96,	11.73,	11.13,	10.76,	12.27,	13.27,	12.62,	10.46,	1665,	1668
127,	8050,	7817,	7951,	8365,	8905,	8603,	8512,	8371,	8570,	8325,	8758,	8613,	8314,	8896,	14.46,	10.36,	12.03,	0.40,	13.67,	12.18,	10.96,	11.73,	11.13,	10.76,	12.27,	13.27,	12.62,	10.46,	1662,	1667
0,	8015,	7795,	7908,	8324,	8872,	8577,	8480,	8290,	8520,	8281,	8692,	8557,	8265,	8843,	14.46,	10.36,	12.03,	0.40,	13.67,	12.18,	10.96,	11.73,	11.13,	10.76,	12.27,	13.27,	12.62,	10.46,	1655,	1660
1,	7995,	7774,	7898,	8311,	8864,	8571,	8454,	8215,	8445,	8265,	8697,	8550,	8240,	8821,	14.46,	10.34,	12.03,	0.40,	13.67,	12.18,	10.96,	11.73,	11.13,	10.76,	12.27,	13.27,	12.62,	10.46,	1654,	1656
2,	7995,	7773,	7926,	8329,	8878,	8570,	8466,	8216,	8439,	8251,	8727,	8589,	8255,	8830,	14.46,	10.34,	12.06,	0.40,	13.67,	12.18,	10.96,	11.73,	11.13,	10.76,	12.27,	13.27,	12.62,	10.46,	1650,	1655
3,	8019,	7790,	7977,	8357,	8883,	8571,	8469,	8226,	8472,	8253,	8753,	8625,	8289,	8856,	14.46,	10.34,	12.06,	0.37,	13.67,	12.18,	10.96,	11.73,	11.13,	10.76,	12.27,	13.27,	12.62,	10.46,	1649,	1654
4,	8052,	7806,	8017,	8382,	8870,	8578,	8471,	8244,	8489,	8275,	8785,	8667,	8309,	8886,	14.46,	10.34,	12.06,	0.37,	13.67,	12.18,	10.96,	11.73,	11.13,	10.76,	12.27,	13.27,	12.62,	10.46,	1648,	1652
5,	8102,	7837,	8063,	8422,	8899,	8603,	8511,	8326,	8525,	8297,	8831,	8750,	8349,	8929,	14.46,	10.34,	12.06,	0.37,	13.67,	12.19,	10.96,	11.73,	11.13,	10.76,	12.27,	13.27,	12.62,	10.46,	1647,	1650
6,	8133,	7859,	8111,	8453,	8939,	8609,	8517,	8360,	8543,	8303,	8876,	8824,	8400,	8963,	14.46,	10.34,	12.06,	0.37,	13.67,	12.19,	10.98,	11.73,	11.13,	10.76,	12.27,	13.27,	12.62,	10.46,	1646,	1645
7,	8139,	7858,	8138,	8458,	8921,	8592,	8490,	8320,	8518,	8316,	8914,	8851,	8423,	8981,	14.46,	10.34,	12.06,	0.37,	13.67,	12.19,	10.98,	11.76,	11.13,	10.76,	12.27,	13.27,	12.62,	10.46,	1645,	1641
8,	8171,	7882,	8181,	8480,	8911,	8611,	8523,	8334,	8525,	8360,	8953,	8891,	8463,	9021,	14.46,	10.34,	12.06,	0.37,	13.67,	12.19,	10.98,	11.76,	11.13,	10.76,	12.27,	13.27,	12.62,	10.46,	1644,	1636
9,	8220,	7909,	8229,	8499,	8949,	8643,	8572,	8387,	8571,	8402,	8977,	8962,	8511,	9063,	14.46,	10.34,	12.06,	0.37,	13.67,	12.19,	10.98,	11.76,	11.13,	10.73,	12.27,	13.27,	12.62,	10.46,	1644,	1633
10,	8227,	7904,	8223,	8481,	8959,	8641,	8567,	8379,	8578,	8410,	8984,	8989,	8519,	9071,	14.46,	10.34,	12.06,	0.37,	13.67,	12.19,	10.98,	11.76,	11.13,	10.73,	12.31,	13.27,	12.62,	10.46,	1644,	1629
11,	8220,	7908,	8206,	8468,	8939,	8641,	8550,	8354,	8559,	8410,	9008,	8979,	8518,	9075,	14.46,	10.34,	12.06,	0.37,	13.67,	12.19,	10.98,	11.76,	11.13,	10.73,	12.31,	13.30,	12.62,	10.46,	1645,	1628
12,	8240,	7920,	8237,	8479,	8942,	8640,	8557,	8385,	8583,	8431,	9048,	9004,	8546,	9094,	14.46,	10.34,	12.06,	0.37,	13.67,	12.19,	10.98,	11.76,	11.13,	10.73,	12.31,	13.30,	12.70,	10.46,	1645,	1628
13,	8258,	7916,	8268,	8495,	8966,	8647,	8588,	8429,	8624,	8447,	9062,	9039,	8574,	9113,	14.46,	10.34,	12.06,	0.37,	13.67,	12.19,	10.98,	11.76,	11.13,	10.73,	12.31,	13.30,	12.70,	10.43,	1646,	1628
14,	8259,	7918,	8263,	8512,	8976,	8666,	8613,	8433,	8630,	8441,	9049,	9029,	8574,	9122,	14.46,	10.34,	12.06,	0.37,	13.67,	12.19,	10.98,	11.76,	11.13,	10.73,	12.28,	13.30,	12.70,	10.43,	1646,	1627
15,	8236,	7910,	8238,	8504,	8942,	8641,	8593,	8412,	8590,	8413,	9019,	8988,	8538,	9096,	14.46,	10.34,	12.06,	0.37,	13.67,	12.19,	10.98,	11.76,	11.13,	10.73,	12.28,	13.29,	12.70,	10.43,	1647,	1628
