=====================
  Training Session  
=====================
Name:		Mohamed Nour El-Din
Session:	Session_2014_05_10_71422
Date:		2014-05-10 20-43-17
Comments:	Blink Test
Trials:		4
TrialsPerClass:	2
BlankTime:	2
SteadyTime:	1
TrainingTime:	4
Triggers:	1882, 2770, 3659, 4547
ClassesTypes:	1, 1, 2, 2
ClassesNames:	RIGHT, LEFT

RawData:
Count,	F3,	FC5,	AF3,	F7,	T7,	P7,	O1,	O2,	P8,	T8,	F8,	AF4,	FC6,	F4,	Q_F3,	Q_FC5,	Q_AF3,	Q_F7,	Q_T7,	Q_P7,	Q_O1,	Q_O2,	Q_P8,	Q_T8,	Q_F8,	Q_AF4,	Q_FC6,	Q_F4,	GyroX,	GyroY
72,	8185,	7882,	8154,	8549,	8903,	8614,	8618,	8425,	8368,	8297,	8814,	8816,	8457,	8957,	0.00,	0.00,	0.00,	0.00,	0.00,	0.00,	0.00,	8.67,	0.92,	0.00,	0.00,	0.00,	0.00,	0.00,	1691,	1704
73,	8157,	7855,	8125,	8516,	8876,	8586,	8570,	8416,	8343,	8253,	8766,	8789,	8421,	8930,	0.00,	0.00,	0.00,	0.00,	0.00,	0.00,	0.00,	8.67,	0.92,	10.81,	13.33,	4.09,	12.46,	3.69,	1690,	1704
74,	8135,	7836,	8102,	8484,	8867,	8584,	8554,	8420,	8346,	8236,	8749,	8775,	8392,	8910,	0.00,	0.00,	0.00,	0.00,	0.00,	0.00,	0.00,	8.67,	0.92,	10.81,	13.33,	4.09,	12.46,	3.69,	1688,	1703
75,	8153,	7861,	8122,	8518,	8889,	8599,	8578,	8428,	8363,	8259,	8782,	8793,	8412,	8925,	0.00,	0.00,	0.00,	0.00,	0.00,	0.00,	0.00,	8.67,	0.92,	10.81,	13.33,	4.09,	12.46,	3.69,	1686,	1704
76,	8195,	7885,	8158,	8558,	8892,	8608,	8597,	8427,	8370,	8269,	8805,	8826,	8439,	8958,	0.00,	0.00,	0.00,	0.00,	0.00,	0.00,	0.00,	8.67,	0.92,	10.81,	13.33,	4.09,	12.46,	3.69,	1686,	1704
77,	8211,	7892,	8172,	8560,	8901,	8615,	8616,	8426,	8379,	8292,	8822,	8837,	8467,	8967,	0.00,	0.00,	0.00,	0.00,	0.00,	0.00,	0.00,	8.67,	0.92,	10.81,	13.33,	4.09,	12.46,	3.69,	1685,	1704
78,	8190,	7884,	8162,	8539,	8915,	8617,	8620,	8432,	8375,	8309,	8822,	8828,	8473,	8956,	0.00,	0.00,	0.00,	0.00,	0.00,	0.00,	0.00,	8.67,	0.92,	10.81,	13.33,	4.09,	12.46,	3.69,	1684,	1704
79,	8171,	7864,	8144,	8517,	8900,	8611,	8596,	8424,	8357,	8284,	8793,	8811,	8439,	8945,	0.00,	0.00,	0.00,	0.00,	0.00,	0.00,	0.00,	8.67,	0.92,	10.81,	13.33,	4.09,	12.46,	3.69,	1683,	1706
80,	8162,	7858,	8136,	8508,	8880,	8598,	8577,	8413,	8359,	8271,	8779,	8802,	8423,	8939,	0.00,	0.00,	0.00,	0.00,	0.00,	0.00,	0.00,	8.67,	0.92,	10.81,	13.33,	4.09,	12.46,	3.69,	1684,	1705
81,	8175,	7871,	8152,	8519,	8876,	8596,	8577,	8421,	8371,	8288,	8799,	8822,	8451,	8952,	0.00,	0.00,	0.00,	0.00,	0.00,	0.00,	0.00,	8.67,	0.92,	10.81,	13.33,	4.09,	12.46,	3.69,	1683,	1707
82,	8198,	7879,	8168,	8541,	8882,	8608,	8592,	8430,	8372,	8304,	8825,	8833,	8477,	8964,	0.00,	0.00,	0.00,	0.00,	0.00,	0.00,	0.00,	8.67,	0.92,	10.81,	13.33,	4.10,	12.47,	3.69,	1684,	1708
83,	8201,	7883,	8164,	8535,	8896,	8614,	8609,	8433,	8371,	8300,	8825,	8828,	8469,	8968,	0.00,	0.00,	0.00,	0.00,	0.00,	0.00,	0.00,	8.67,	0.92,	10.81,	13.33,	4.10,	12.47,	3.69,	1684,	1709
84,	8197,	7887,	8163,	8527,	8913,	8618,	8622,	8434,	8377,	8301,	8821,	8834,	8465,	8974,	0.00,	0.00,	0.00,	0.00,	0.00,	0.00,	0.00,	8.67,	0.92,	10.81,	13.33,	4.10,	12.47,	3.69,	1685,	1711
85,	8199,	7886,	8167,	8533,	8910,	8614,	8629,	8429,	8379,	8308,	8835,	8837,	8477,	8966,	0.00,	0.00,	0.00,	0.00,	0.00,	0.00,	0.00,	8.67,	0.92,	10.81,	13.33,	4.10,	12.47,	3.69,	1687,	1709
86,	8199,	7885,	8160,	8518,	8886,	8602,	8619,	8426,	8370,	8297,	8830,	8832,	8469,	8959,	0.00,	0.00,	0.00,	0.00,	0.00,	0.00,	0.00,	8.67,	0.92,	10.81,	13.38,	4.10,	12.47,	3.69,	1689,	1710
87,	8189,	7881,	8152,	8504,	8890,	8605,	8617,	8428,	8371,	8294,	8816,	8827,	8460,	8957,	0.00,	0.00,	0.00,	0.00,	0.00,	0.00,	0.00,	8.67,	0.92,	10.81,	13.38,	4.10,	12.47,	3.69,	1691,	1710
88,	8191,	7880,	8162,	8516,	8915,	8623,	8637,	8434,	8378,	8315,	8832,	8832,	8476,	8966,	0.00,	0.00,	0.00,	0.00,	0.00,	0.00,	0.00,	8.67,	0.92,	10.81,	13.38,	4.10,	12.46,	3.69,	1694,	1711
89,	8192,	7880,	8161,	8509,	8900,	8619,	8625,	8431,	8367,	8300,	8835,	8829,	8469,	8965,	0.00,	0.00,	0.00,	0.00,	0.00,	0.00,	0.00,	8.67,	0.92,	10.81,	13.38,	4.10,	12.46,	3.69,	1697,	1711
90,	8175,	7862,	8138,	8480,	8872,	8594,	8585,	8420,	8358,	8264,	8810,	8812,	8435,	8938,	0.00,	0.00,	0.00,	0.00,	0.00,	0.00,	0.00,	8.67,	0.92,	10.81,	13.35,	4.10,	12.46,	3.69,	1699,	1712
91,	8184,	7866,	8144,	8492,	8882,	8598,	8585,	8424,	8372,	8276,	8811,	8823,	8439,	8943,	0.00,	0.00,	0.00,	0.00,	0.00,	0.00,	0.00,	8.67,	0.92,	10.81,	13.35,	4.10,	12.46,	3.69,	1702,	1712
92,	8201,	7894,	8160,	8516,	8901,	8618,	8619,	8434,	8380,	8303,	8824,	8835,	8471,	8964,	0.00,	0.00,	0.00,	0.00,	0.00,	0.00,	0.00,	8.67,	0.92,	10.81,	13.35,	4.10,	12.49,	3.69,	1704,	1713
93,	8196,	7891,	8149,	8503,	8901,	8617,	8625,	8433,	8375,	8315,	8824,	8828,	8476,	8960,	0.00,	0.00,	0.00,	0.00,	0.00,	0.00,	0.00,	8.67,	0.92,	10.81,	13.35,	4.10,	12.49,	3.69,	1708,	1713
94,	8192,	7865,	8147,	8487,	8899,	8608,	8606,	8433,	8379,	8320,	8828,	8829,	8453,	8955,	0.00,	0.00,	0.00,	0.00,	0.00,	0.00,	0.00,	8.67,	0.92,	10.81,	13.36,	4.10,	12.49,	3.69,	1708,	1713
95,	8200,	7867,	8159,	8503,	8920,	8618,	8613,	8437,	8385,	8317,	8834,	8832,	8452,	8961,	0.00,	0.00,	0.00,	0.00,	0.00,	0.00,	0.00,	8.67,	0.92,	10.81,	13.36,	4.10,	12.49,	3.69,	1710,	1715
96,	8211,	7877,	8159,	8509,	8928,	8626,	8638,	8436,	8379,	8324,	8830,	8835,	8473,	8969,	0.00,	0.00,	0.00,	0.00,	0.00,	0.00,	0.00,	8.67,	0.92,	10.81,	13.36,	4.10,	12.47,	3.69,	1712,	1714
97,	8200,	7868,	8147,	8490,	8908,	8613,	8639,	8431,	8374,	8328,	8822,	8832,	8468,	8965,	0.00,	0.00,	0.00,	0.00,	0.00,	0.00,	0.00,	8.67,	0.92,	10.81,	13.36,	4.10,	12.47,	3.72,	1712,	1715
98,	8197,	7886,	8159,	8511,	8921,	8622,	8645,	8435,	8382,	8317,	8833,	8832,	8463,	8963,	0.00,	0.00,	0.00,	0.00,	0.00,	0.00,	0.00,	8.67,	0.92,	10.81,	13.35,	4.10,	12.47,	3.72,	1713,	1713
99,	8223,	7922,	8189,	8558,	8963,	8649,	8669,	8445,	8389,	8323,	8842,	8850,	8483,	8981,	0.00,	0.00,	0.00,	0.00,	0.00,	0.00,	0.00,	8.67,	0.92,	10.81,	13.35,	4.10,	12.47,	3.72,	1714,	1712
100,	8220,	7907,	8178,	8552,	8955,	8638,	8662,	8439,	8383,	8343,	8828,	8844,	8477,	8977,	0.00,	0.00,	0.00,	0.00,	0.00,	0.00,	0.00,	8.67,	0.92,	10.81,	13.35,	4.10,	12.47,	3.72,	1714,	1711
101,	8186,	7868,	8148,	8513,	8914,	8611,	8627,	8427,	8372,	8322,	8813,	8823,	8443,	8955,	0.00,	0.00,	0.00,	0.00,	0.00,	0.00,	0.00,	8.67,	0.92,	10.81,	13.35,	4.10,	12.47,	3.72,	1713,	1712
102,	8178,	7854,	8144,	8496,	8895,	8603,	8612,	8429,	8365,	8292,	8813,	8824,	8436,	8953,	0.00,	0.00,	0.00,	0.00,	0.00,	0.00,	0.00,	8.67,	0.92,	10.81,	13.33,	4.10,	12.47,	3.72,	1713,	1711
103,	8184,	7848,	8140,	8486,	8891,	8603,	8604,	8428,	8365,	8292,	8803,	8823,	8438,	8949,	0.00,	0.00,	0.00,	0.00,	0.00,	0.00,	0.00,	8.67,	0.92,	10.81,	13.33,	4.09,	12.47,	3.72,	1712,	1711
104,	8164,	7835,	8124,	8465,	8887,	8602,	8581,	8424,	8365,	8287,	8781,	8809,	8426,	8938,	0.00,	0.00,	0.00,	0.00,	0.00,	0.00,	0.00,	8.67,	0.92,	10.81,	13.33,	4.09,	12.46,	3.72,	1712,	1714
105,	8156,	7849,	8132,	8474,	8889,	8607,	8585,	8433,	8370,	8296,	8789,	8816,	8435,	8944,	0.00,	0.00,	0.00,	0.00,	0.00,	0.00,	0.00,	8.67,	0.92,	10.81,	13.33,	4.09,	12.46,	3.69,	1711,	1715
106,	8189,	7876,	8161,	8501,	8903,	8616,	8616,	8444,	8380,	8333,	8820,	8837,	8462,	8964,	0.00,	0.00,	0.00,	0.00,	0.00,	0.00,	0.00,	8.67,	0.92,	10.81,	13.33,	4.09,	12.46,	3.69,	1711,	1714
107,	8201,	7860,	8163,	8494,	8907,	8614,	8609,	8435,	8376,	8335,	8810,	8836,	8459,	8964,	0.00,	0.00,	0.00,	0.00,	0.00,	0.00,	0.00,	8.67,	0.92,	10.81,	13.33,	4.10,	12.46,	3.69,	1710,	1712
108,	8170,	7828,	8144,	8472,	8889,	8597,	8573,	8421,	8357,	8294,	8784,	8821,	8439,	8946,	0.00,	0.00,	0.00,	0.00,	0.00,	0.00,	0.00,	8.67,	0.92,	10.81,	13.33,	4.10,	12.46,	3.69,	1709,	1710
109,	8166,	7849,	8155,	8486,	8887,	8588,	8575,	8425,	8361,	8285,	8798,	8827,	8444,	8948,	0.00,	0.00,	0.00,	0.00,	0.00,	0.00,	0.00,	8.67,	0.92,	10.81,	13.33,	4.10,	12.46,	3.72,	1707,	1709
110,	8193,	7887,	8177,	8505,	8906,	8597,	8596,	8435,	8382,	8308,	8819,	8840,	8457,	8961,	0.00,	0.00,	0.00,	0.00,	0.00,	0.00,	0.00,	8.67,	0.92,	10.81,	13.33,	4.10,	12.46,	3.72,	1707,	1707
111,	8185,	7870,	8162,	8490,	8908,	8600,	8590,	8432,	8379,	8316,	8803,	8834,	8450,	8955,	0.00,	0.00,	0.00,	0.00,	0.00,	0.00,	0.00,	8.67,	0.92,	10.81,	13.33,	4.12,	12.46,	3.72,	1705,	1706
112,	8172,	7843,	8147,	8474,	8894,	8591,	8578,	8427,	8366,	8306,	8790,	8826,	8439,	8949,	0.00,	0.00,	0.00,	0.00,	0.00,	0.00,	0.00,	8.67,	0.92,	10.81,	13.33,	4.12,	12.47,	3.72,	1704,	1706
113,	8191,	7856,	8166,	8486,	8895,	8593,	8584,	8429,	8372,	8306,	8802,	8827,	8442,	8959,	0.00,	0.00,	0.00,	0.00,	0.00,	0.00,	0.00,	8.67,	0.92,	10.81,	13.33,	4.12,	12.47,	3.67,	1701,	1704
114,	8198,	7866,	8173,	8497,	8909,	8597,	8590,	8423,	8376,	8315,	8806,	8825,	8453,	8955,	0.00,	0.00,	0.00,	0.00,	0.00,	0.00,	0.00,	8.67,	0.92,	10.81,	13.36,	4.12,	12.47,	3.67,	1701,	1705
115,	8196,	7861,	8166,	8485,	8909,	8600,	8582,	8419,	8366,	8303,	8791,	8832,	8458,	8960,	0.00,	0.00,	0.00,	0.00,	0.00,	0.00,	0.00,	8.67,	0.92,	10.81,	13.36,	4.12,	12.47,	3.67,	1700,	1701
116,	8193,	7860,	8169,	8480,	8895,	8599,	8580,	8422,	8363,	8290,	8788,	8828,	8460,	8962,	0.00,	0.00,	0.00,	0.00,	0.00,	0.00,	0.00,	8.67,	0.92,	10.81,	13.36,	4.12,	12.44,	3.67,	1698,	1702
117,	8173,	7854,	8165,	8505,	8905,	8595,	8609,	8422,	8375,	8320,	8817,	8806,	8474,	8933,	0.00,	0.00,	0.00,	0.00,	0.00,	0.00,	0.00,	8.67,	0.92,	10.81,	13.36,	4.12,	12.44,	3.69,	1697,	1700
118,	8192,	7870,	8183,	8519,	8941,	8613,	8629,	8438,	8387,	8352,	8839,	8836,	8485,	8955,	0.00,	0.00,	0.00,	0.00,	0.00,	0.00,	0.00,	8.67,	0.92,	10.81,	13.35,	4.12,	12.44,	3.69,	1696,	1699
119,	8203,	7880,	8185,	8493,	8934,	8611,	8609,	8438,	8376,	8318,	8808,	8848,	8467,	8971,	0.00,	0.00,	0.00,	0.00,	0.00,	0.00,	0.00,	8.67,	0.92,	10.81,	13.35,	4.10,	12.44,	3.69,	1695,	1698
120,	8173,	7859,	8156,	8475,	8893,	8589,	8583,	8417,	8356,	8267,	8773,	8816,	8443,	8937,	0.00,	0.00,	0.00,	0.00,	0.00,	0.00,	0.00,	8.67,	0.92,	10.81,	13.35,	4.10,	12.49,	3.69,	1693,	1698
121,	8185,	7862,	8168,	8492,	8893,	8597,	8577,	8422,	8360,	8274,	8785,	8834,	8446,	8947,	0.00,	0.00,	0.00,	0.00,	0.00,	0.00,	0.00,	8.67,	0.92,	10.81,	13.35,	4.10,	12.49,	3.69,	1693,	1696
122,	8198,	7867,	8180,	8498,	8905,	8602,	8579,	8428,	8366,	8291,	8807,	8841,	8449,	8959,	0.00,	0.00,	0.00,	0.00,	0.00,	0.00,	0.00,	8.67,	0.92,	10.81,	13.38,	4.10,	12.49,	3.69,	1691,	1696
123,	8183,	7851,	8163,	8485,	8896,	8596,	8577,	8420,	8359,	8268,	8796,	8822,	8437,	8949,	0.00,	0.00,	0.00,	0.00,	0.00,	0.00,	0.00,	8.67,	0.92,	10.81,	13.38,	4.10,	12.49,	3.69,	1691,	1695
124,	8189,	7856,	8171,	8491,	8905,	8606,	8586,	8424,	8367,	8272,	8791,	8835,	8447,	8957,	0.00,	0.00,	0.00,	0.00,	0.00,	0.00,	0.00,	8.67,	0.92,	10.81,	13.38,	4.10,	12.47,	3.69,	1690,	1693
125,	8199,	7865,	8187,	8494,	8914,	8609,	8603,	8438,	8379,	8309,	8800,	8847,	8462,	8960,	0.00,	0.00,	0.00,	0.00,	0.00,	0.00,	0.00,	8.67,	0.92,	10.81,	13.38,	4.10,	12.47,	3.72,	1689,	1694
126,	8187,	7845,	8173,	8473,	8894,	8593,	8590,	8436,	8368,	8299,	8790,	8839,	8437,	8953,	0.00,	0.00,	0.00,	0.00,	0.00,	0.00,	0.00,	8.67,	0.92,	10.81,	13.36,	4.10,	12.47,	3.72,	1689,	1693
127,	8194,	7858,	8175,	8485,	8896,	8597,	8576,	8427,	8364,	8286,	8796,	8845,	8441,	8959,	0.00,	0.00,	0.00,	0.00,	0.00,	0.00,	0.00,	8.67,	0.92,	10.81,	13.36,	4.09,	12.47,	3.72,	1687,	1694
0,	8195,	7881,	8191,	8510,	8918,	8612,	8600,	8429,	8379,	8317,	8824,	8839,	8477,	8957,	10.61,	0.00,	0.00,	0.00,	0.00,	0.00,	0.00,	8.67,	0.92,	10.81,	13.36,	4.09,	12.47,	3.72,	1688,	1693
1,	8169,	7838,	8155,	8471,	8900,	8586,	8570,	8427,	8361,	8278,	8790,	8821,	8424,	8938,	10.61,	9.69,	0.00,	0.00,	0.00,	0.00,	0.00,	8.67,	0.92,	10.81,	13.36,	4.09,	12.47,	3.72,	1688,	1692
2,	8188,	7857,	8175,	8494,	8913,	8600,	8587,	8433,	8373,	8290,	8796,	8836,	8452,	8956,	10.61,	9.69,	10.71,	0.00,	0.00,	0.00,	0.00,	8.67,	0.92,	10.81,	13.36,	4.09,	12.47,	3.72,	1688,	1690
3,	8214,	7889,	8205,	8528,	8940,	8629,	8638,	8437,	8386,	8330,	8827,	8855,	8490,	8976,	10.61,	9.69,	10.71,	0.03,	0.00,	0.00,	0.00,	8.67,	0.92,	10.81,	13.36,	4.09,	12.47,	3.72,	1689,	1690
4,	8200,	7877,	8181,	8496,	8936,	8616,	8619,	8426,	8367,	8310,	8815,	8839,	8451,	8956,	10.61,	9.69,	10.71,	0.03,	14.50,	0.00,	0.00,	8.67,	0.92,	10.81,	13.36,	4.09,	12.47,	3.72,	1689,	1690
5,	8195,	7865,	8173,	8479,	8925,	8602,	8577,	8421,	8363,	8287,	8806,	8830,	8441,	8947,	10.61,	9.69,	10.71,	0.03,	14.50,	8.79,	0.00,	8.67,	0.92,	10.81,	13.36,	4.09,	12.47,	3.72,	1690,	1690
6,	8217,	7880,	8206,	8522,	8931,	8614,	8581,	8433,	8378,	8322,	8839,	8850,	8484,	8972,	10.61,	9.69,	10.71,	0.03,	14.50,	8.79,	1.38,	8.67,	0.92,	10.81,	13.36,	4.09,	12.47,	3.72,	1691,	1689
7,	8221,	7898,	8211,	8543,	8936,	8616,	8598,	8436,	8376,	8344,	8860,	8858,	8493,	8976,	10.61,	9.69,	10.71,	0.03,	14.50,	8.79,	1.38,	8.74,	0.92,	10.81,	13.36,	4.09,	12.47,	3.72,	1692,	1690
8,	8213,	7897,	8194,	8528,	8945,	8613,	8606,	8432,	8375,	8331,	8850,	8850,	8481,	8964,	10.61,	9.69,	10.71,	0.03,	14.50,	8.79,	1.38,	8.74,	1.04,	10.81,	13.36,	4.09,	12.47,	3.72,	1694,	1688
9,	8210,	7882,	8189,	8520,	8955,	8615,	8613,	8433,	8375,	8325,	8839,	8847,	8483,	8965,	10.61,	9.69,	10.71,	0.03,	14.50,	8.79,	1.38,	8.74,	1.04,	10.86,	13.36,	4.09,	12.47,	3.72,	1694,	1688
10,	8207,	7879,	8183,	8524,	8955,	8609,	8610,	8432,	8365,	8330,	8831,	8844,	8474,	8961,	10.61,	9.69,	10.71,	0.03,	14.50,	8.79,	1.38,	8.74,	1.04,	10.86,	13.36,	4.09,	12.47,	3.72,	1696,	1687
11,	8211,	7891,	8192,	8530,	8964,	8616,	8611,	8432,	8373,	8344,	8839,	8846,	8472,	8965,	10.61,	9.69,	10.71,	0.03,	14.50,	8.79,	1.38,	8.74,	1.04,	10.86,	13.36,	4.07,	12.47,	3.72,	1696,	1686
12,	8223,	7893,	8215,	8537,	8981,	8630,	8639,	8443,	8389,	8356,	8859,	8857,	8491,	8983,	10.61,	9.69,	10.71,	0.03,	14.50,	8.79,	1.38,	8.74,	1.04,	10.86,	13.36,	4.07,	12.49,	3.72,	1698,	1688
13,	8213,	7881,	8193,	8524,	8972,	8617,	8639,	8439,	8377,	8332,	8838,	8846,	8479,	8971,	10.61,	9.69,	10.71,	0.03,	14.50,	8.79,	1.38,	8.74,	1.04,	10.86,	13.36,	4.07,	12.49,	3.60,	1699,	1687
14,	8189,	7873,	8154,	8499,	8951,	8607,	8598,	8420,	8358,	8287,	8791,	8819,	8435,	8944,	10.61,	9.69,	10.71,	0.03,	14.50,	8.79,	1.38,	8.74,	1.04,	10.86,	13.36,	4.07,	12.49,	3.60,	1700,	1688
15,	8178,	7861,	8146,	8484,	8938,	8616,	8581,	8418,	8360,	8264,	8764,	8805,	8408,	8937,	10.61,	9.69,	10.71,	0.03,	14.50,	8.79,	1.38,	8.74,	1.04,	10.86,	13.36,	4.04,	12.49,	3.60,	1700,	1687
16,	8186,	7854,	8152,	8484,	8936,	8618,	8606,	8431,	8373,	8282,	8779,	8816,	8427,	8945,	10.61,	9.69,	10.71,	0.03,	14.50,	8.79,	1.38,	8.74,	1.04,	10.86,	13.36,	4.04,	12.49,	3.60,	1701,	1689
17,	8210,	7880,	8168,	8512,	8957,	8621,	8634,	8441,	8385,	8332,	8833,	8841,	8467,	8963,	10.61,	9.69,	10.71,	0.03,	14.50,	8.79,	1.38,	8.74,	1.04,	10.86,	13.36,	4.04,	12.49,	3.60,	1701,	1689
18,	8218,	7897,	8191,	8535,	8979,	8625,	8644,	8443,	8387,	8361,	8866,	8850,	8478,	8976,	10.61,	9.69,	10.71,	0.03,	14.50,	8.79,	1.38,	8.74,	1.04,	10.86,	13.36,	4.04,	12.49,	3.60,	1702,	1690
19,	8207,	7888,	8192,	8521,	8972,	8622,	8647,	8438,	8381,	8350,	8852,	8842,	8472,	8969,	10.61,	9.69,	10.71,	0.03,	14.50,	8.79,	1.38,	8.74,	1.04,	10.86,	13.36,	4.04,	12.49,	3.60,	1703,	1689
20,	8216,	7892,	8192,	8519,	8960,	8625,	8645,	8438,	8379,	8347,	8845,	8850,	8491,	8969,	10.61,	9.69,	10.71,	0.03,	14.50,	8.79,	1.38,	8.74,	1.04,	10.86,	13.36,	4.04,	12.49,	3.60,	1702,	1690
21,	8238,	7903,	8208,	8544,	8969,	8629,	8636,	8442,	8378,	8353,	8855,	8859,	8511,	8980,	10.61,	9.69,	10.71,	0.03,	14.50,	8.79,	1.38,	8.74,	1.04,	10.86,	13.36,	4.04,	12.49,	3.60,	1704,	1690
22,	8229,	7897,	8204,	8545,	8981,	8626,	8628,	8439,	8377,	8344,	8861,	8850,	8488,	8975,	10.61,	9.69,	10.71,	0.03,	14.50,	8.79,	1.38,	8.74,	1.04,	10.86,	13.36,	4.04,	12.49,	3.60,	1702,	1689
23,	8212,	7899,	8201,	8544,	8990,	8633,	8640,	8434,	8382,	8341,	8865,	8850,	8473,	8971,	10.61,	9.69,	10.71,	0.03,	14.50,	8.79,	1.38,	8.74,	1.04,	10.86,	13.36,	4.04,	12.49,	3.60,	1702,	1688
24,	8220,	7909,	8216,	8554,	8994,	8635,	8643,	8436,	8384,	8345,	8857,	8856,	8483,	8981,	10.61,	9.69,	10.71,	0.03,	14.50,	8.79,	1.38,	8.74,	1.04,	10.86,	13.36,	4.04,	12.49,	3.60,	1702,	1687
25,	8228,	7897,	8210,	8540,	8992,	8629,	8629,	8442,	8377,	8343,	8842,	8853,	8479,	8979,	10.61,	9.69,	10.71,	0.03,	14.50,	8.79,	1.38,	8.74,	1.04,	10.86,	13.36,	4.04,	12.49,	3.60,	1702,	1688
26,	8221,	7888,	8196,	8528,	8986,	8633,	8633,	8440,	8376,	8342,	8847,	8851,	8482,	8974,	10.61,	9.69,	10.71,	0.03,	14.50,	8.79,	1.38,	8.74,	1.04,	10.86,	13.36,	4.04,	12.49,	3.60,	1702,	1687
27,	8218,	7893,	8203,	8546,	8981,	8634,	8645,	8432,	8383,	8347,	8858,	8852,	8502,	8975,	10.61,	9.69,	10.71,	0.03,	14.50,	8.79,	1.38,	8.74,	1.04,	10.86,	13.36,	4.04,	12.49,	3.60,	1700,	1688
28,	8227,	7897,	8212,	8557,	8979,	8624,	8644,	8435,	8383,	8358,	8863,	8852,	8506,	8980,	10.61,	9.69,	10.71,	0.03,	14.50,	8.79,	1.38,	8.74,	1.04,	10.86,	13.36,	4.04,	12.49,	3.60,	1700,	1688
29,	8243,	7914,	8220,	8559,	8993,	8628,	8647,	8446,	8381,	8370,	8878,	8868,	8502,	8989,	10.61,	9.69,	10.71,	0.03,	14.50,	8.79,	1.38,	8.74,	1.04,	10.86,	13.36,	4.04,	12.49,	3.60,	1699,	1688
30,	8246,	7925,	8229,	8561,	9009,	8637,	8652,	8445,	8381,	8366,	8876,	8872,	8505,	8990,	10.61,	9.69,	10.71,	0.03,	14.50,	8.79,	1.38,	8.74,	1.04,	10.86,	13.36,	4.04,	12.49,	3.60,	1697,	1687
31,	8220,	7899,	8204,	8534,	8991,	8621,	8636,	8432,	8376,	8341,	8849,	8845,	8495,	8972,	10.61,	9.69,	10.71,	0.03,	14.50,	8.79,	1.38,	8.74,	1.04,	10.86,	13.36,	4.04,	12.49,	3.60,	1696,	1689
32,	8206,	7872,	8180,	8515,	8969,	8604,	8614,	8434,	8374,	8332,	8837,	8834,	8485,	8959,	10.61,	9.69,	10.71,	0.03,	14.50,	8.79,	1.38,	8.74,	1.04,	10.86,	13.36,	4.04,	12.49,	3.60,	1696,	1689
33,	8210,	7872,	8188,	8521,	8968,	8603,	8604,	8438,	8373,	8337,	8837,	8838,	8469,	8952,	10.61,	9.69,	10.71,	0.03,	14.50,	8.79,	1.38,	8.74,	1.04,	10.86,	13.36,	4.04,	12.49,	3.60,	1695,	1691
34,	8198,	7871,	8182,	8508,	8962,	8605,	8597,	8431,	8373,	8320,	8822,	8829,	8440,	8945,	10.61,	9.69,	10.71,	0.03,	14.50,	8.79,	1.38,	8.74,	1.04,	10.86,	13.36,	4.04,	12.49,	3.60,	1695,	1690
35,	8193,	7869,	8169,	8492,	8949,	8606,	8603,	8429,	8373,	8305,	8803,	8827,	8452,	8954,	10.61,	9.69,	10.71,	0.03,	14.50,	8.79,	1.38,	8.74,	1.04,	10.86,	13.36,	4.04,	12.49,	3.60,	1695,	1692
36,	8208,	7879,	8182,	8517,	8965,	8612,	8622,	8436,	8378,	8322,	8816,	8841,	8484,	8967,	10.61,	9.69,	10.71,	0.03,	14.50,	8.79,	1.38,	8.74,	1.04,	10.86,	13.36,	4.04,	12.49,	3.60,	1694,	1691
37,	8225,	7889,	8203,	8552,	8991,	8624,	8635,	8439,	8384,	8343,	8854,	8852,	8493,	8974,	10.61,	9.69,	10.71,	0.03,	14.50,	8.79,	1.38,	8.74,	1.04,	10.86,	13.36,	4.04,	12.49,	3.60,	1693,	1690
38,	8227,	7890,	8205,	8547,	8982,	8622,	8627,	8435,	8378,	8338,	8866,	8854,	8493,	8979,	10.61,	9.69,	10.71,	0.03,	14.50,	8.79,	1.38,	8.74,	1.04,	10.86,	13.36,	4.04,	12.49,	3.60,	1695,	1688
39,	8220,	7883,	8195,	8528,	8964,	8612,	8618,	8433,	8373,	8330,	8836,	8848,	8496,	8976,	10.61,	9.69,	10.71,	0.03,	14.50,	8.79,	1.38,	8.74,	1.04,	10.86,	13.36,	4.04,	12.49,	3.60,	1692,	1688
40,	8225,	7886,	8194,	8539,	8982,	8624,	8627,	8441,	8382,	8335,	8826,	8843,	8499,	8972,	10.61,	9.69,	10.71,	0.03,	14.50,	8.79,	1.38,	8.74,	1.04,	10.86,	13.36,	4.04,	12.49,	3.60,	1693,	1689
41,	8237,	7896,	8202,	8560,	8998,	8632,	8619,	8443,	8385,	8340,	8850,	8844,	8499,	8973,	10.61,	9.69,	10.71,	0.03,	14.50,	8.79,	1.38,	8.74,	1.04,	10.86,	13.36,	4.04,	12.49,	3.60,	1692,	1690
42,	8223,	7887,	8196,	8546,	8970,	8613,	8591,	8434,	8367,	8326,	8847,	8842,	8482,	8970,	10.61,	9.69,	10.71,	0.03,	14.50,	8.79,	1.38,	8.74,	1.04,	10.86,	13.36,	4.04,	12.49,	3.60,	1693,	1692
43,	8197,	7874,	8178,	8517,	8948,	8604,	8583,	8427,	8362,	8309,	8821,	8832,	8461,	8958,	10.61,	9.69,	10.71,	0.03,	14.50,	8.79,	1.38,	8.74,	1.04,	10.86,	13.36,	4.04,	12.49,	3.60,	1692,	1692
44,	8193,	7876,	8173,	8509,	8957,	8614,	8592,	8429,	8372,	8305,	8811,	8828,	8466,	8954,	10.61,	9.69,	10.71,	0.03,	14.50,	8.79,	1.38,	8.74,	1.04,	10.86,	13.36,	4.04,	12.49,	3.60,	1691,	1695
45,	8198,	7880,	8180,	8512,	8965,	8613,	8594,	8428,	8371,	8299,	8813,	8831,	8478,	8958,	10.61,	9.69,	10.71,	0.03,	14.50,	8.79,	1.38,	8.74,	1.04,	10.86,	13.36,	4.04,	12.49,	3.60,	1691,	1695
46,	8195,	7876,	8183,	8515,	8965,	8615,	8600,	8429,	8373,	8299,	8819,	8832,	8471,	8957,	10.61,	9.69,	10.71,	0.03,	14.50,	8.79,	1.38,	8.74,	1.04,	10.86,	13.36,	4.04,	12.49,	3.60,	1692,	1694
47,	8202,	7875,	8184,	8510,	8963,	8622,	8608,	8435,	8382,	8324,	8821,	8835,	8463,	8957,	10.61,	9.69,	10.71,	0.03,	14.50,	8.79,	1.38,	8.74,	1.04,	10.86,	13.36,	4.04,	12.49,	3.60,	1692,	1693
48,	8217,	7879,	8194,	8511,	8969,	8622,	8614,	8439,	8381,	8347,	8821,	8843,	8477,	8968,	10.61,	9.69,	10.71,	0.03,	14.50,	8.79,	1.38,	8.74,	1.04,	10.86,	13.36,	4.04,	12.49,	3.60,	1690,	1691
49,	8232,	7899,	8217,	8537,	9000,	8639,	8651,	8449,	8387,	8356,	8850,	8863,	8507,	8986,	10.61,	9.69,	10.71,	0.03,	14.50,	8.79,	1.38,	8.74,	1.04,	10.86,	13.36,	4.04,	12.49,	3.60,	1691,	1689
50,	8240,	7915,	8230,	8554,	9014,	8645,	8665,	8455,	8395,	8361,	8881,	8871,	8518,	8993,	10.61,	9.69,	10.71,	0.03,	14.50,	8.79,	1.38,	8.74,	1.04,	10.86,	13.36,	4.04,	12.49,	3.60,	1690,	1689
51,	8228,	7899,	8218,	8540,	8982,	8618,	8618,	8438,	8382,	8352,	8865,	8851,	8503,	8982,	10.61,	9.69,	10.71,	0.03,	14.50,	8.79,	1.38,	8.74,	1.04,	10.86,	13.36,	4.04,	12.49,	3.60,	1692,	1688
52,	8225,	7889,	8218,	8544,	8978,	8613,	8610,	8428,	8376,	8343,	8855,	8847,	8504,	8978,	10.61,	9.69,	10.71,	0.03,	14.50,	8.79,	1.38,	8.74,	1.04,	10.86,	13.36,	4.04,	12.49,	3.60,	1690,	1687
53,	8240,	7904,	8236,	8565,	9003,	8634,	8647,	8441,	8386,	8349,	8872,	8865,	8519,	8982,	10.61,	9.69,	10.71,	0.03,	14.50,	8.79,	1.38,	8.74,	1.04,	10.86,	13.36,	4.04,	12.49,	3.60,	1691,	1688
54,	8246,	7912,	8239,	8556,	8992,	8632,	8645,	8445,	8387,	8356,	8876,	8869,	8520,	8988,	10.61,	9.69,	10.71,	0.03,	14.50,	8.79,	1.38,	8.74,	1.04,	10.86,	13.36,	4.04,	12.49,	3.60,	1692,	1685
55,	8245,	7911,	8236,	8548,	8980,	8632,	8645,	8435,	8386,	8351,	8869,	8867,	8520,	8995,	10.61,	9.69,	10.71,	0.03,	14.50,	8.79,	1.38,	8.74,	1.04,	10.86,	13.36,	4.04,	12.49,	3.60,	1692,	1686
56,	8253,	7916,	8248,	8560,	9004,	8648,	8676,	8440,	8395,	8347,	8878,	8878,	8535,	8999,	10.61,	9.69,	10.71,	0.03,	14.50,	8.79,	1.38,	8.74,	1.04,	10.86,	13.36,	4.04,	12.49,	3.60,	1693,	1686
57,	8264,	7921,	8260,	8574,	9017,	8646,	8671,	8450,	8393,	8363,	8896,	8884,	8540,	9003,	10.61,	9.69,	10.71,	0.03,	14.50,	8.79,	1.38,	8.74,	1.04,	10.86,	13.36,	4.04,	12.49,	3.60,	1694,	1686
58,	8268,	7921,	8257,	8571,	9013,	8635,	8652,	8447,	8385,	8386,	8904,	8879,	8529,	9008,	10.61,	9.69,	10.71,	0.03,	14.50,	8.79,	1.38,	8.74,	1.04,	10.86,	13.36,	4.04,	12.49,	3.60,	1695,	1686
59,	8268,	7922,	8260,	8556,	9015,	8639,	8663,	8444,	8391,	8401,	8902,	8879,	8542,	9012,	10.61,	9.69,	10.71,	0.03,	14.50,	8.79,	1.38,	8.74,	1.04,	10.86,	13.36,	4.04,	12.49,	3.60,	1695,	1686
60,	8261,	7922,	8268,	8558,	9006,	8639,	8658,	8446,	8393,	8396,	8895,	8878,	8563,	9009,	10.61,	9.69,	10.71,	0.03,	14.50,	8.79,	1.38,	8.74,	1.04,	10.86,	13.36,	4.04,	12.49,	3.60,	1697,	1685
61,	8251,	7911,	8259,	8560,	8993,	8630,	8640,	8441,	8386,	8374,	8887,	8868,	8545,	8999,	10.61,	9.69,	10.71,	0.03,	14.50,	8.79,	1.38,	8.74,	1.04,	10.86,	13.36,	4.04,	12.49,	3.60,	1696,	1686
62,	8248,	7898,	8246,	8544,	8996,	8628,	8644,	8432,	8384,	8359,	8896,	8864,	8515,	8991,	10.61,	9.69,	10.71,	0.03,	14.50,	8.79,	1.38,	8.74,	1.04,	10.86,	13.36,	4.04,	12.49,	3.60,	1699,	1686
63,	8250,	7906,	8253,	8536,	9003,	8634,	8652,	8437,	8390,	8370,	8912,	8874,	8521,	9002,	10.61,	9.69,	10.71,	0.03,	14.50,	8.79,	1.38,	8.74,	1.04,	10.86,	13.36,	4.04,	12.49,	3.60,	1700,	1685
64,	8245,	7912,	8259,	8543,	9001,	8632,	8646,	8443,	8389,	8373,	8903,	8877,	8536,	9006,	10.58,	9.69,	10.71,	0.03,	14.50,	8.79,	1.38,	8.74,	1.04,	10.86,	13.36,	4.04,	12.49,	3.60,	1700,	1687
65,	8239,	7901,	8250,	8536,	8986,	8627,	8644,	8438,	8383,	8353,	8874,	8869,	8527,	8991,	10.58,	9.60,	10.71,	0.03,	14.50,	8.79,	1.38,	8.74,	1.04,	10.86,	13.36,	4.04,	12.49,	3.60,	1701,	1685
66,	8249,	7898,	8252,	8527,	8982,	8633,	8655,	8437,	8388,	8356,	8868,	8869,	8520,	8988,	10.58,	9.60,	10.77,	0.03,	14.50,	8.79,	1.38,	8.74,	1.04,	10.86,	13.36,	4.04,	12.49,	3.60,	1700,	1687
67,	8252,	7908,	8258,	8535,	9001,	8644,	8667,	8444,	8393,	8365,	8883,	8872,	8522,	9000,	10.58,	9.60,	10.77,	0.04,	14.50,	8.79,	1.38,	8.74,	1.04,	10.86,	13.36,	4.04,	12.49,	3.60,	1702,	1687
68,	8244,	7910,	8254,	8531,	9017,	8649,	8670,	8446,	8390,	8353,	8885,	8867,	8520,	9001,	10.58,	9.60,	10.77,	0.04,	14.49,	8.79,	1.38,	8.74,	1.04,	10.86,	13.36,	4.04,	12.49,	3.60,	1700,	1687
69,	8251,	7907,	8253,	8527,	9017,	8645,	8682,	8448,	8397,	8360,	8873,	8859,	8526,	8991,	10.58,	9.60,	10.77,	0.04,	14.49,	8.74,	1.38,	8.74,	1.04,	10.86,	13.36,	4.04,	12.49,	3.60,	1701,	1688
70,	8252,	7905,	8254,	8537,	9016,	8639,	8692,	8455,	8402,	8375,	8860,	8856,	8519,	8988,	10.58,	9.60,	10.77,	0.04,	14.49,	8.74,	1.36,	8.74,	1.04,	10.86,	13.36,	4.04,	12.49,	3.60,	1700,	1688
71,	8223,	7885,	8232,	8516,	9000,	8625,	8660,	8443,	8380,	8349,	8836,	8842,	8479,	8978,	10.58,	9.60,	10.77,	0.04,	14.49,	8.74,	1.36,	8.71,	1.04,	10.86,	13.36,	4.04,	12.49,	3.60,	1701,	1688
72,	8209,	7871,	8214,	8488,	8983,	8618,	8632,	8425,	8369,	8320,	8828,	8828,	8463,	8963,	10.58,	9.60,	10.77,	0.04,	14.49,	8.74,	1.36,	8.71,	1.01,	10.86,	13.36,	4.04,	12.49,	3.60,	1699,	1688
73,	8236,	7885,	8231,	8501,	8995,	8630,	8650,	8433,	8387,	8334,	8861,	8845,	8500,	8976,	10.58,	9.60,	10.77,	0.04,	14.49,	8.74,	1.36,	8.71,	1.01,	10.87,	13.36,	4.04,	12.49,	3.60,	1700,	1687
74,	8238,	7890,	8241,	8510,	8997,	8633,	8652,	8437,	8385,	8335,	8871,	8859,	8511,	8987,	10.58,	9.60,	10.77,	0.04,	14.49,	8.74,	1.36,	8.71,	1.01,	10.87,	13.33,	4.04,	12.49,	3.60,	1698,	1687
75,	8217,	7875,	8226,	8491,	8980,	8622,	8630,	8424,	8368,	8318,	8836,	8843,	8479,	8972,	10.58,	9.60,	10.77,	0.04,	14.49,	8.74,	1.36,	8.71,	1.01,	10.87,	13.33,	3.94,	12.49,	3.60,	1697,	1688
76,	8224,	7876,	8228,	8495,	8980,	8622,	8626,	8428,	8378,	8328,	8830,	8843,	8479,	8972,	10.58,	9.60,	10.77,	0.04,	14.49,	8.74,	1.36,	8.71,	1.01,	10.87,	13.33,	3.94,	12.47,	3.60,	1697,	1686
77,	8248,	7898,	8253,	8524,	9000,	8634,	8641,	8441,	8393,	8348,	8871,	8869,	8519,	8995,	10.58,	9.60,	10.77,	0.04,	14.49,	8.74,	1.36,	8.71,	1.01,	10.87,	13.33,	3.94,	12.47,	3.57,	1696,	1688
78,	8271,	7921,	8276,	8539,	9015,	8649,	8663,	8440,	8391,	8364,	8901,	8884,	8549,	9014,	10.58,	9.60,	10.77,	0.04,	14.49,	8.74,	1.36,	8.71,	1.01,	10.87,	13.38,	3.94,	12.47,	3.57,	1696,	1688
79,	8276,	7930,	8282,	8543,	9018,	8654,	8680,	8439,	8392,	8374,	8906,	8881,	8546,	9015,	10.58,	9.60,	10.77,	0.04,	14.49,	8.74,	1.36,	8.71,	1.01,	10.87,	13.38,	3.91,	12.47,	3.57,	1695,	1687
80,	8260,	7918,	8273,	8540,	9010,	8643,	8661,	8442,	8396,	8361,	8903,	8877,	8531,	9005,	10.58,	9.60,	10.77,	0.04,	14.49,	8.74,	1.36,	8.71,	1.01,	10.87,	13.38,	3.91,	12.46,	3.57,	1695,	1687
81,	8247,	7905,	8264,	8527,	9003,	8639,	8650,	8445,	8396,	8348,	8886,	8875,	8533,	8999,	10.58,	9.60,	10.77,	0.04,	14.49,	8.74,	1.36,	8.71,	1.01,	10.87,	13.38,	3.91,	12.46,	3.59,	1695,	1687
82,	8262,	7912,	8270,	8530,	9017,	8659,	8687,	8455,	8405,	8375,	8876,	8876,	8547,	9004,	10.58,	9.60,	10.77,	0.04,	14.49,	8.74,	1.36,	8.71,	1.01,	10.87,	13.38,	3.91,	12.46,	3.59,	1695,	1687
83,	8278,	7927,	8281,	8550,	9035,	8664,	8707,	8460,	8407,	8404,	8890,	8885,	8552,	9009,	10.58,	9.60,	10.77,	0.04,	14.49,	8.74,	1.36,	8.71,	1.01,	10.87,	13.38,	3.96,	12.46,	3.59,	1695,	1687
84,	8273,	7926,	8283,	8556,	9031,	8645,	8688,	8450,	8396,	8397,	8905,	8888,	8544,	9008,	10.58,	9.60,	10.77,	0.04,	14.49,	8.74,	1.36,	8.71,	1.01,	10.87,	13.38,	3.96,	12.44,	3.59,	1695,	1688
85,	8265,	7915,	8280,	8548,	9028,	8646,	8679,	8442,	8395,	8386,	8907,	8882,	8537,	9008,	10.58,	9.60,	10.77,	0.04,	14.49,	8.74,	1.36,	8.71,	1.01,	10.87,	13.38,	3.96,	12.44,	3.60,	1694,	1688
86,	8274,	7927,	8290,	8560,	9047,	8663,	8692,	8449,	8400,	8379,	8906,	8885,	8540,	9012,	10.58,	9.60,	10.77,	0.04,	14.49,	8.74,	1.36,	8.71,	1.01,	10.87,	13.33,	3.96,	12.44,	3.60,	1695,	1688
87,	8285,	7944,	8303,	8581,	9060,	8659,	8701,	8460,	8400,	8377,	8905,	8891,	8549,	9012,	10.58,	9.60,	10.77,	0.04,	14.49,	8.74,	1.36,	8.71,	1.01,	10.87,	13.33,	3.93,	12.44,	3.60,	1694,	1689
88,	8264,	7926,	8290,	8554,	9033,	8638,	8688,	8450,	8387,	8371,	8876,	8873,	8533,	9003,	10.58,	9.60,	10.77,	0.04,	14.49,	8.74,	1.36,	8.71,	1.01,	10.87,	13.33,	3.93,	12.44,	3.60,	1695,	1688
89,	8241,	7906,	8272,	8515,	9008,	8641,	8665,	8437,	8381,	8350,	8841,	8857,	8507,	8993,	10.58,	9.60,	10.77,	0.04,	14.49,	8.74,	1.36,	8.71,	1.01,	10.87,	13.33,	3.93,	12.44,	3.57,	1694,	1689
90,	8257,	7914,	8285,	8525,	9023,	8664,	8669,	8445,	8395,	8358,	8854,	8868,	8509,	8997,	10.58,	9.60,	10.77,	0.04,	14.49,	8.74,	1.36,	8.71,	1.01,	10.87,	13.35,	3.93,	12.44,	3.57,	1695,	1688
91,	8273,	7923,	8299,	8546,	9034,	8663,	8686,	8453,	8407,	8388,	8888,	8880,	8522,	9005,	10.58,	9.60,	10.77,	0.04,	14.49,	8.74,	1.36,	8.71,	1.01,	10.87,	13.35,	3.94,	12.44,	3.57,	1694,	1688
92,	8259,	7925,	8295,	8541,	9022,	8647,	8683,	8447,	8398,	8377,	8877,	8878,	8524,	9005,	10.58,	9.60,	10.77,	0.04,	14.49,	8.74,	1.36,	8.71,	1.01,	10.87,	13.35,	3.94,	12.49,	3.57,	1695,	1690
93,	8252,	7924,	8294,	8533,	9018,	8643,	8674,	8444,	8388,	8347,	8844,	8875,	8528,	9004,	10.58,	9.60,	10.77,	0.04,	14.49,	8.74,	1.36,	8.71,	1.01,	10.87,	13.35,	3.94,	12.49,	3.59,	1694,	1690
94,	8264,	7911,	8295,	8525,	9020,	8648,	8675,	8446,	8388,	8357,	8850,	8875,	8531,	9003,	10.58,	9.60,	10.77,	0.04,	14.49,	8.74,	1.36,	8.71,	1.01,	10.87,	13.38,	3.94,	12.49,	3.59,	1695,	1692
95,	8259,	7907,	8292,	8519,	9011,	8656,	8687,	8450,	8389,	8373,	8868,	8872,	8525,	8996,	10.58,	9.60,	10.77,	0.04,	14.49,	8.74,	1.36,	8.71,	1.01,	10.87,	13.38,	3.96,	12.49,	3.59,	1696,	1690
96,	8242,	7912,	8292,	8518,	9008,	8658,	8697,	8451,	8393,	8369,	8867,	8868,	8515,	8993,	10.58,	9.60,	10.77,	0.04,	14.49,	8.74,	1.36,	8.71,	1.01,	10.87,	13.38,	3.96,	12.46,	3.59,	1694,	1692
97,	8234,	7901,	8286,	8505,	9012,	8647,	8683,	8446,	8393,	8360,	8859,	8865,	8509,	8988,	10.58,	9.60,	10.77,	0.04,	14.49,	8.74,	1.36,	8.71,	1.01,	10.87,	13.38,	3.96,	12.46,	3.60,	1695,	1690
98,	8248,	7899,	8294,	8502,	9015,	8651,	8666,	8452,	8391,	8362,	8872,	8871,	8525,	8996,	10.58,	9.60,	10.77,	0.04,	14.49,	8.74,	1.36,	8.71,	1.01,	10.87,	13.36,	3.96,	12.46,	3.60,	1695,	1688
99,	8283,	7933,	8335,	8548,	9039,	8677,	8689,	8461,	8401,	8396,	8899,	8891,	8560,	9020,	10.58,	9.60,	10.77,	0.04,	14.49,	8.74,	1.36,	8.71,	1.01,	10.87,	13.36,	3.93,	12.46,	3.60,	1696,	1689
100,	8288,	7944,	8350,	8574,	9058,	8672,	8704,	8457,	8399,	8413,	8898,	8895,	8561,	9021,	10.58,	9.60,	10.77,	0.04,	14.49,	8.74,	1.36,	8.71,	1.01,	10.87,	13.36,	3.93,	12.44,	3.60,	1696,	1688
101,	8262,	7919,	8327,	8551,	9026,	8648,	8671,	8452,	8387,	8380,	8874,	8882,	8525,	8998,	10.58,	9.60,	10.77,	0.04,	14.49,	8.74,	1.36,	8.71,	1.01,	10.87,	13.36,	3.93,	12.44,	3.60,	1697,	1688
102,	8266,	7924,	8335,	8547,	9007,	8647,	8663,	8453,	8394,	8374,	8881,	8884,	8523,	9000,	10.58,	9.60,	10.77,	0.04,	14.49,	8.74,	1.36,	8.71,	1.01,	10.87,	13.38,	3.93,	12.44,	3.60,	1696,	1688
103,	8284,	7951,	8355,	8556,	9031,	8652,	8686,	8455,	8402,	8398,	8905,	8896,	8559,	9023,	10.58,	9.60,	10.77,	0.04,	14.49,	8.74,	1.36,	8.71,	1.01,	10.87,	13.38,	3.94,	12.44,	3.60,	1697,	1688
104,	8271,	7938,	8341,	8543,	9030,	8643,	8679,	8453,	8394,	8379,	8894,	8894,	8559,	9020,	10.58,	9.60,	10.77,	0.04,	14.49,	8.74,	1.36,	8.71,	1.01,	10.87,	13.38,	3.94,	12.49,	3.60,	1697,	1687
105,	8269,	7921,	8335,	8541,	9013,	8644,	8670,	8455,	8396,	8369,	8880,	8891,	8537,	9011,	10.58,	9.60,	10.77,	0.04,	14.49,	8.74,	1.36,	8.71,	1.01,	10.87,	13.38,	3.94,	12.49,	3.59,	1697,	1688
106,	8280,	7936,	8351,	8553,	9021,	8652,	8681,	8459,	8402,	8391,	8891,	8892,	8534,	9019,	10.58,	9.60,	10.77,	0.04,	14.49,	8.74,	1.36,	8.71,	1.01,	10.87,	13.35,	3.94,	12.49,	3.59,	1698,	1687
107,	8269,	7938,	8348,	8543,	9022,	8646,	8677,	8455,	8393,	8384,	8886,	8890,	8536,	9014,	10.58,	9.60,	10.77,	0.04,	14.49,	8.74,	1.36,	8.71,	1.01,	10.87,	13.35,	3.93,	12.49,	3.59,	1697,	1689
108,	8269,	7929,	8343,	8537,	9024,	8653,	8677,	8454,	8393,	8381,	8887,	8893,	8545,	9007,	10.58,	9.60,	10.77,	0.04,	14.49,	8.74,	1.36,	8.71,	1.01,	10.87,	13.35,	3.93,	12.46,	3.59,	1699,	1688
109,	8281,	7932,	8349,	8547,	9040,	8660,	8693,	8461,	8400,	8397,	8904,	8897,	8552,	9011,	10.58,	9.60,	10.77,	0.04,	14.49,	8.74,	1.36,	8.71,	1.01,	10.87,	13.35,	3.93,	12.46,	3.57,	1698,	1687
110,	8270,	7927,	8344,	8547,	9033,	8645,	8696,	8459,	8393,	8389,	8890,	8888,	8533,	9006,	10.58,	9.60,	10.77,	0.04,	14.49,	8.74,	1.36,	8.71,	1.01,	10.87,	13.33,	3.93,	12.46,	3.57,	1698,	1686
111,	8265,	7922,	8338,	8544,	9018,	8642,	8692,	8452,	8390,	8378,	8880,	8884,	8520,	9003,	10.58,	9.60,	10.77,	0.04,	14.49,	8.74,	1.36,	8.71,	1.01,	10.87,	13.33,	3.91,	12.46,	3.57,	1698,	1684
112,	8272,	7924,	8339,	8537,	9023,	8651,	8690,	8455,	8392,	8376,	8897,	8889,	8527,	9013,	10.58,	9.60,	10.77,	0.04,	14.49,	8.74,	1.36,	8.71,	1.01,	10.87,	13.33,	3.91,	12.47,	3.57,	1698,	1685
113,	8237,	7902,	8310,	8499,	8995,	8625,	8645,	8443,	8369,	8329,	8849,	8866,	8496,	8987,	10.58,	9.60,	10.77,	0.04,	14.49,	8.74,	1.36,	8.71,	1.01,	10.87,	13.33,	3.91,	12.47,	3.57,	1698,	1685
114,	8193,	7872,	8273,	8460,	8951,	8602,	8592,	8420,	8350,	8269,	8759,	8832,	8438,	8947,	10.58,	9.60,	10.77,	0.04,	14.49,	8.74,	1.36,	8.71,	1.01,	10.87,	13.33,	3.91,	12.47,	3.57,	1698,	1685
115,	8216,	7883,	8294,	8486,	8971,	8635,	8628,	8431,	8380,	8295,	8778,	8846,	8454,	8973,	10.58,	9.60,	10.77,	0.04,	14.49,	8.74,	1.36,	8.71,	1.01,	10.87,	13.33,	3.91,	12.47,	3.57,	1698,	1685
116,	8261,	7912,	8341,	8541,	9026,	8666,	8704,	8464,	8416,	8370,	8879,	8883,	8520,	9020,	10.58,	9.60,	10.77,	0.04,	14.49,	8.74,	1.36,	8.71,	1.01,	10.87,	13.33,	3.91,	12.44,	3.57,	1696,	1686
117,	8264,	7922,	8349,	8543,	9037,	8650,	8704,	8467,	8404,	8391,	8906,	8893,	8536,	9016,	10.58,	9.60,	10.77,	0.04,	14.49,	8.74,	1.36,	8.71,	1.01,	10.87,	13.33,	3.91,	12.44,	3.56,	1698,	1684
118,	8252,	7924,	8338,	8521,	9015,	8632,	8658,	8446,	8379,	8361,	8865,	8884,	8516,	8997,	10.58,	9.60,	10.77,	0.04,	14.49,	8.74,	1.36,	8.71,	1.01,	10.87,	13.36,	3.91,	12.44,	3.56,	1697,	1684
119,	8262,	7925,	8348,	8529,	9009,	8643,	8649,	8450,	8385,	8354,	8860,	8884,	8520,	9007,	10.58,	9.60,	10.77,	0.04,	14.49,	8.74,	1.36,	8.71,	1.01,	10.87,	13.36,	3.93,	12.44,	3.56,	1698,	1684
120,	8277,	7918,	8361,	8549,	9028,	8663,	8670,	8467,	8402,	8385,	8894,	8896,	8542,	9022,	10.58,	9.60,	10.77,	0.04,	14.49,	8.74,	1.36,	8.71,	1.01,	10.87,	13.36,	3.93,	12.47,	3.56,	1697,	1685
121,	8273,	7917,	8360,	8552,	9037,	8652,	8666,	8460,	8396,	8394,	8901,	8896,	8545,	9017,	10.58,	9.60,	10.77,	0.04,	14.49,	8.74,	1.36,	8.71,	1.01,	10.87,	13.36,	3.93,	12.47,	3.59,	1697,	1686
122,	8258,	7923,	8352,	8543,	9011,	8624,	8628,	8445,	8380,	8361,	8869,	8887,	8521,	9001,	10.58,	9.60,	10.77,	0.04,	14.49,	8.74,	1.36,	8.71,	1.01,	10.87,	13.33,	3.93,	12.47,	3.59,	1697,	1684
123,	8250,	7918,	8344,	8532,	8986,	8613,	8602,	8440,	8377,	8337,	8837,	8880,	8501,	8995,	10.58,	9.60,	10.77,	0.04,	14.49,	8.74,	1.36,	8.71,	1.01,	10.87,	13.33,	3.94,	12.47,	3.59,	1697,	1685
124,	8262,	7914,	8352,	8539,	9004,	8634,	8628,	8447,	8388,	8356,	8849,	8888,	8517,	9007,	10.58,	9.60,	10.77,	0.04,	14.49,	8.74,	1.36,	8.71,	1.01,	10.87,	13.33,	3.94,	12.44,	3.59,	1697,	1684
125,	8280,	7927,	8370,	8563,	9039,	8658,	8679,	8462,	8398,	8375,	8890,	8904,	8540,	9017,	10.58,	9.60,	10.77,	0.04,	14.49,	8.74,	1.36,	8.71,	1.01,	10.87,	13.33,	3.94,	12.44,	3.60,	1697,	1684
126,	8278,	7932,	8367,	8562,	9042,	8652,	8688,	8460,	8390,	8368,	8900,	8899,	8535,	9007,	10.58,	9.60,	10.77,	0.04,	14.49,	8.74,	1.36,	8.71,	1.01,	10.87,	13.33,	3.94,	12.44,	3.60,	1697,	1683
127,	8265,	7928,	8351,	8547,	9024,	8638,	8656,	8449,	8385,	8370,	8878,	8884,	8527,	8996,	10.58,	9.60,	10.77,	0.04,	14.49,	8.74,	1.36,	8.71,	1.01,	10.87,	13.33,	3.91,	12.44,	3.60,	1697,	1684
0,	8273,	7924,	8362,	8552,	9010,	8637,	8649,	8452,	8392,	8371,	8883,	8894,	8535,	9013,	10.56,	9.60,	10.77,	0.04,	14.49,	8.74,	1.36,	8.71,	1.01,	10.87,	13.33,	3.91,	12.44,	3.60,	1696,	1683
1,	8269,	7919,	8361,	8530,	9007,	8637,	8657,	8444,	8384,	8356,	8888,	8885,	8528,	9004,	10.56,	9.61,	10.77,	0.04,	14.49,	8.74,	1.36,	8.71,	1.01,	10.87,	13.33,	3.91,	12.44,	3.60,	1698,	1683
2,	8264,	7926,	8355,	8528,	9004,	8636,	8653,	8445,	8388,	8366,	8879,	8879,	8520,	8997,	10.56,	9.61,	10.62,	0.04,	14.49,	8.74,	1.36,	8.71,	1.01,	10.87,	13.33,	3.91,	12.44,	3.60,	1696,	1683
3,	8266,	7931,	8352,	8541,	9001,	8636,	8656,	8451,	8394,	8366,	8879,	8885,	8517,	9007,	10.56,	9.61,	10.62,	0.00,	14.49,	8.74,	1.36,	8.71,	1.01,	10.87,	13.33,	3.91,	12.44,	3.60,	1696,	1684
4,	8264,	7925,	8351,	8541,	9001,	8632,	8647,	8450,	8387,	8343,	8886,	8882,	8517,	9009,	10.56,	9.61,	10.62,	0.00,	14.50,	8.74,	1.36,	8.71,	1.01,	10.87,	13.33,	3.91,	12.44,	3.60,	1697,	1683
5,	8269,	7932,	8362,	8551,	9013,	8637,	8640,	8455,	8387,	8348,	8879,	8881,	8533,	9009,	10.56,	9.61,	10.62,	0.00,	14.50,	8.71,	1.36,	8.71,	1.01,	10.87,	13.33,	3.91,	12.44,	3.60,	1696,	1686
6,	8274,	7938,	8370,	8568,	9027,	8647,	8644,	8454,	8388,	8372,	8880,	8888,	8541,	9013,	10.56,	9.61,	10.62,	0.00,	14.50,	8.71,	1.36,	8.71,	1.01,	10.87,	13.33,	3.91,	12.44,	3.60,	1696,	1686
7,	8267,	7934,	8363,	8569,	9032,	8650,	8645,	8449,	8389,	8375,	8895,	8890,	8519,	9002,	10.56,	9.61,	10.62,	0.00,	14.50,	8.71,	1.36,	8.61,	1.01,	10.87,	13.33,	3.91,	12.44,	3.60,	1695,	1686
8,	8263,	7940,	8365,	8569,	9041,	8655,	8653,	8457,	8397,	8375,	8890,	8886,	8512,	8994,	10.56,	9.61,	10.62,	0.00,	14.50,	8.71,	1.36,	8.61,	1.02,	10.87,	13.33,	3.91,	12.44,	3.60,	1695,	1686
9,	8258,	7931,	8355,	8558,	9029,	8647,	8650,	8456,	8386,	8359,	8862,	8875,	8512,	8990,	10.56,	9.61,	10.62,	0.00,	14.50,	8.71,	1.36,	8.61,	1.02,	10.87,	13.33,	3.91,	12.44,	3.60,	1694,	1687
10,	8243,	7905,	8331,	8528,	8994,	8627,	8628,	8437,	8366,	8312,	8835,	8861,	8485,	8979,	10.56,	9.61,	10.62,	0.00,	14.50,	8.71,	1.36,	8.61,	1.02,	10.87,	13.33,	3.91,	12.44,	3.60,	1694,	1689
11,	8243,	7902,	8326,	8520,	8987,	8629,	8630,	8434,	8370,	8292,	8820,	8855,	8475,	8978,	10.56,	9.61,	10.62,	0.00,	14.50,	8.71,	1.36,	8.61,	1.02,	10.87,	13.33,	3.88,	12.44,	3.60,	1694,	1691
12,	8254,	7915,	8331,	8535,	9013,	8650,	8656,	8449,	8389,	8314,	8835,	8859,	8506,	8986,	10.56,	9.61,	10.62,	0.00,	14.50,	8.71,	1.36,	8.61,	1.02,	10.87,	13.33,	3.88,	12.44,	3.60,	1693,	1689
13,	8258,	7925,	8335,	8551,	9030,	8654,	8663,	8457,	8394,	8339,	8872,	8871,	8515,	8992,	10.56,	9.61,	10.62,	0.00,	14.50,	8.71,	1.36,	8.61,	1.02,	10.87,	13.33,	3.88,	12.44,	3.54,	1692,	1689
14,	8260,	7928,	8340,	8559,	9027,	8645,	8669,	8454,	8390,	8342,	8865,	8873,	8495,	8993,	10.56,	9.61,	10.62,	0.00,	14.50,	8.71,	1.36,	8.61,	1.02,	10.87,	13.35,	3.88,	12.44,	3.54,	1693,	1686
15,	8254,	7920,	8330,	8535,	9012,	8643,	8672,	8456,	8386,	8322,	8829,	8865,	8496,	8988,	10.56,	9.61,	10.62,	0.00,	14.50,	8.71,	1.36,	8.61,	1.02,	10.87,	13.35,	3.85,	12.44,	3.54,	1693,	1686
16,	8250,	7916,	8322,	8514,	8997,	8643,	8652,	8457,	8386,	8314,	8833,	8867,	8512,	8986,	10.56,	9.61,	10.62,	0.00,	14.50,	8.71,	1.36,	8.61,	1.02,	10.87,	13.35,	3.85,	12.44,	3.54,	1693,	1685
17,	8262,	7925,	8335,	8536,	9003,	8643,	8637,	8452,	8391,	8335,	8859,	8872,	8517,	8990,	10.56,	9.61,	10.62,	0.00,	14.50,	8.71,	1.36,	8.61,	1.02,	10.87,	13.35,	3.85,	12.44,	3.54,	1693,	1685
18,	8275,	7933,	8344,	8558,	9016,	8643,	8646,	8452,	8387,	8350,	8881,	8875,	8517,	8998,	10.56,	9.61,	10.62,	0.00,	14.50,	8.71,	1.36,	8.61,	1.02,	10.87,	13.35,	3.85,	12.44,	3.54,	1694,	1684
19,	8277,	7933,	8339,	8550,	9016,	8642,	8653,	8455,	8381,	8343,	8887,	8882,	8520,	9008,	10.56,	9.61,	10.62,	0.00,	14.50,	8.71,	1.36,	8.61,	1.02,	10.87,	13.35,	3.85,	12.44,	3.54,	1693,	1685
20,	8277,	7941,	8343,	8555,	9020,	8646,	8659,	8457,	8386,	8356,	8868,	8884,	8533,	9007,	10.56,	9.61,	10.62,	0.00,	14.50,	8.71,	1.36,	8.61,	1.02,	10.87,	13.35,	3.85,	12.44,	3.54,	1695,	1685
21,	8286,	7947,	8348,	8571,	9032,	8662,	8675,	8460,	8394,	8375,	8858,	8881,	8544,	9005,	10.56,	9.61,	10.62,	0.00,	14.50,	8.71,	1.36,	8.61,	1.02,	10.87,	13.35,	3.85,	12.44,	3.54,	1694,	1685
22,	8288,	7945,	8343,	8559,	9040,	8664,	8676,	8463,	8392,	8366,	8870,	8885,	8544,	9011,	10.56,	9.61,	10.62,	0.00,	14.50,	8.71,	1.36,	8.61,	1.02,	10.87,	13.35,	3.85,	12.44,	3.54,	1695,	1687
23,	8272,	7930,	8331,	8535,	9028,	8645,	8651,	8460,	8384,	8346,	8871,	8884,	8533,	9009,	10.56,	9.61,	10.62,	0.00,	14.50,	8.71,	1.36,	8.61,	1.02,	10.87,	13.35,	3.85,	12.44,	3.54,	1697,	1685
24,	8268,	7927,	8331,	8535,	9019,	8648,	8653,	8465,	8388,	8351,	8872,	8886,	8534,	9004,	10.56,	9.61,	10.62,	0.00,	14.50,	8.71,	1.36,	8.61,	1.02,	10.87,	13.35,	3.85,	12.44,	3.54,	1696,	1685
25,	8291,	7949,	8348,	8561,	9046,	8670,	8695,	8473,	8402,	8386,	8897,	8897,	8548,	9015,	10.56,	9.61,	10.62,	0.00,	14.50,	8.71,	1.36,	8.61,	1.02,	10.87,	13.35,	3.85,	12.44,	3.54,	1698,	1683
26,	8291,	7951,	8344,	8570,	9053,	8655,	8687,	8459,	8397,	8391,	8886,	8889,	8541,	9015,	10.56,	9.61,	10.62,	0.00,	14.50,	8.71,	1.36,	8.61,	1.02,	10.87,	13.35,	3.85,	12.44,	3.54,	1699,	1683
27,	8275,	7942,	8338,	8570,	9031,	8641,	8652,	8458,	8388,	8365,	8857,	8883,	8530,	9008,	10.56,	9.61,	10.62,	0.00,	14.50,	8.71,	1.36,	8.61,	1.02,	10.87,	13.35,	3.85,	12.44,	3.54,	1700,	1682
28,	8286,	7950,	8350,	8582,	9032,	8664,	8667,	8472,	8392,	8371,	8868,	8894,	8534,	9013,	10.56,	9.61,	10.62,	0.00,	14.50,	8.71,	1.36,	8.61,	1.02,	10.87,	13.35,	3.85,	12.44,	3.54,	1700,	1683
29,	8279,	7941,	8335,	8573,	9043,	8665,	8676,	8459,	8385,	8371,	8875,	8883,	8526,	9005,	10.56,	9.61,	10.62,	0.00,	14.50,	8.71,	1.36,	8.61,	1.02,	10.87,	13.35,	3.85,	12.44,	3.54,	1701,	1683
30,	8264,	7931,	8322,	8555,	9041,	8654,	8655,	8447,	8378,	8346,	8875,	8881,	8524,	9004,	10.56,	9.61,	10.62,	0.00,	14.50,	8.71,	1.36,	8.61,	1.02,	10.87,	13.35,	3.85,	12.44,	3.54,	1701,	1681
31,	8274,	7945,	8332,	8561,	9046,	8664,	8667,	8457,	8388,	8354,	8887,	8889,	8529,	9013,	10.56,	9.61,	10.62,	0.00,	14.50,	8.71,	1.36,	8.61,	1.02,	10.87,	13.35,	3.85,	12.44,	3.54,	1701,	1679
32,	8269,	7942,	8323,	8554,	9038,	8658,	8678,	8457,	8386,	8367,	8869,	8873,	8514,	9001,	10.56,	9.61,	10.62,	0.00,	14.50,	8.71,	1.36,	8.61,	1.02,	10.87,	13.35,	3.85,	12.44,	3.54,	1701,	1678
33,	8266,	7928,	8310,	8524,	9005,	8645,	8650,	8461,	8377,	8340,	8835,	8879,	8497,	9007,	10.56,	9.61,	10.62,	0.00,	14.50,	8.71,	1.36,	8.61,	1.02,	10.87,	13.35,	3.85,	12.44,	3.54,	1701,	1678
34,	8265,	7930,	8309,	8535,	9012,	8643,	8654,	8462,	8387,	8360,	8863,	8879,	8516,	9000,	10.56,	9.61,	10.62,	0.00,	14.50,	8.71,	1.36,	8.61,	1.02,	10.87,	13.35,	3.85,	12.44,	3.54,	1701,	1677
35,	8276,	7942,	8321,	8555,	9035,	8646,	8676,	8460,	8393,	8398,	8890,	8882,	8525,	9003,	10.56,	9.61,	10.62,	0.00,	14.50,	8.71,	1.36,	8.61,	1.02,	10.87,	13.35,	3.85,	12.44,	3.54,	1699,	1679
36,	8302,	7950,	8336,	8539,	9022,	8653,	8673,	8469,	8387,	8370,	8870,	8905,	8518,	9032,	10.56,	9.61,	10.62,	0.00,	14.50,	8.71,	1.36,	8.61,	1.02,	10.87,	13.35,	3.85,	12.44,	3.54,	1701,	1679
37,	8287,	7946,	8327,	8537,	9015,	8651,	8675,	8465,	8384,	8353,	8879,	8889,	8532,	9016,	10.56,	9.61,	10.62,	0.00,	14.50,	8.71,	1.36,	8.61,	1.02,	10.87,	13.35,	3.85,	12.44,	3.54,	1700,	1679
38,	8278,	7944,	8323,	8551,	9013,	8648,	8663,	8454,	8376,	8371,	8880,	8889,	8537,	9012,	10.56,	9.61,	10.62,	0.00,	14.50,	8.71,	1.36,	8.61,	1.02,	10.87,	13.35,	3.85,	12.44,	3.54,	1700,	1678
39,	8278,	7943,	8317,	8542,	9000,	8643,	8641,	8446,	8367,	8357,	8849,	8894,	8519,	9013,	10.56,	9.61,	10.62,	0.00,	14.50,	8.71,	1.36,	8.61,	1.02,	10.87,	13.35,	3.85,	12.44,	3.54,	1699,	1679
40,	8260,	7925,	8296,	8525,	8996,	8641,	8649,	8448,	8368,	8330,	8855,	8875,	8503,	8997,	10.56,	9.61,	10.62,	0.00,	14.50,	8.71,	1.36,	8.61,	1.02,	10.87,	13.35,	3.85,	12.44,	3.54,	1699,	1680
41,	8262,	7913,	8292,	8516,	9007,	8645,	8653,	8458,	8380,	8325,	8874,	8879,	8501,	9007,	10.56,	9.61,	10.62,	0.00,	14.50,	8.71,	1.36,	8.61,	1.02,	10.87,	13.35,	3.85,	12.44,	3.54,	1698,	1681
42,	8274,	7925,	8298,	8524,	9013,	8642,	8638,	8459,	8384,	8356,	8870,	8883,	8522,	9014,	10.56,	9.61,	10.62,	0.00,	14.50,	8.71,	1.36,	8.61,	1.02,	10.87,	13.35,	3.85,	12.44,	3.54,	1699,	1682
43,	8284,	7948,	8307,	8542,	9002,	8644,	8641,	8460,	8376,	8382,	8865,	8889,	8540,	9017,	10.56,	9.61,	10.62,	0.00,	14.50,	8.71,	1.36,	8.61,	1.02,	10.87,	13.35,	3.85,	12.44,	3.54,	1698,	1682
44,	8282,	7945,	8305,	8551,	9007,	8651,	8656,	8459,	8379,	8375,	8874,	8890,	8534,	9017,	10.56,	9.61,	10.62,	0.00,	14.50,	8.71,	1.36,	8.61,	1.02,	10.87,	13.35,	3.85,	12.44,	3.54,	1697,	1686
45,	8268,	7917,	8287,	8530,	9012,	8649,	8653,	8457,	8383,	8356,	8866,	8877,	8513,	9004,	10.56,	9.61,	10.62,	0.00,	14.50,	8.71,	1.36,	8.61,	1.02,	10.87,	13.35,	3.85,	12.44,	3.54,	1698,	1685
46,	8260,	7902,	8275,	8503,	8993,	8645,	8637,	8459,	8375,	8336,	8847,	8870,	8501,	8999,	10.56,	9.61,	10.62,	0.00,	14.50,	8.71,	1.36,	8.61,	1.02,	10.87,	13.35,	3.85,	12.44,	3.54,	1697,	1687
47,	8265,	7919,	8276,	8516,	8995,	8649,	8649,	8462,	8376,	8345,	8860,	8872,	8513,	9003,	10.56,	9.61,	10.62,	0.00,	14.50,	8.71,	1.36,	8.61,	1.02,	10.87,	13.35,	3.85,	12.44,	3.54,	1698,	1686
48,	8275,	7938,	8285,	8537,	9015,	8654,	8669,	8468,	8390,	8375,	8874,	8883,	8532,	9012,	10.56,	9.61,	10.62,	0.00,	14.50,	8.71,	1.36,	8.61,	1.02,	10.87,	13.35,	3.85,	12.44,	3.54,	1698,	1687
49,	8271,	7928,	8283,	8521,	9001,	8643,	8650,	8466,	8386,	8372,	8850,	8878,	8524,	9007,	10.56,	9.61,	10.62,	0.00,	14.50,	8.71,	1.36,	8.61,	1.02,	10.87,	13.35,	3.85,	12.44,	3.54,	1698,	1688
50,	8258,	7911,	8272,	8507,	8985,	8639,	8624,	8455,	8372,	8343,	8847,	8869,	8511,	9000,	10.56,	9.61,	10.62,	0.00,	14.50,	8.71,	1.36,	8.61,	1.02,	10.87,	13.35,	3.85,	12.44,	3.54,	1697,	1688
51,	8260,	7914,	8277,	8517,	9006,	8653,	8634,	8461,	8376,	8343,	8873,	8880,	8512,	9011,	10.56,	9.61,	10.62,	0.00,	14.50,	8.71,	1.36,	8.61,	1.02,	10.87,	13.35,	3.85,	12.44,	3.54,	1697,	1689
52,	8261,	7915,	8276,	8519,	9011,	8650,	8646,	8469,	8376,	8348,	8857,	8879,	8508,	9007,	10.56,	9.61,	10.62,	0.00,	14.50,	8.71,	1.36,	8.61,	1.02,	10.87,	13.35,	3.85,	12.44,	3.54,	1697,	1687
53,	8257,	7915,	8263,	8504,	8987,	8638,	8632,	8460,	8368,	8339,	8830,	8864,	8499,	8993,	10.56,	9.61,	10.62,	0.00,	14.50,	8.71,	1.36,	8.61,	1.02,	10.87,	13.35,	3.85,	12.44,	3.54,	1697,	1687
54,	8273,	7939,	8275,	8517,	8990,	8649,	8645,	8456,	8376,	8362,	8847,	8874,	8519,	9012,	10.56,	9.61,	10.62,	0.00,	14.50,	8.71,	1.36,	8.61,	1.02,	10.87,	13.35,	3.85,	12.44,	3.54,	1696,	1685
55,	8288,	7948,	8292,	8539,	9007,	8650,	8664,	8465,	8386,	8380,	8861,	8887,	8536,	9025,	10.56,	9.61,	10.62,	0.00,	14.50,	8.71,	1.36,	8.61,	1.02,	10.87,	13.35,	3.85,	12.44,	3.54,	1696,	1685
56,	8278,	7936,	8282,	8532,	9003,	8640,	8637,	8470,	8377,	8357,	8860,	8880,	8520,	9009,	10.56,	9.61,	10.62,	0.00,	14.50,	8.71,	1.36,	8.61,	1.02,	10.87,	13.35,	3.85,	12.44,	3.54,	1697,	1683
57,	8280,	7941,	8282,	8523,	9000,	8652,	8623,	8468,	8378,	8348,	8876,	8886,	8514,	9011,	10.56,	9.61,	10.62,	0.00,	14.50,	8.71,	1.36,	8.61,	1.02,	10.87,	13.35,	3.85,	12.44,	3.54,	1695,	1684
58,	8295,	7952,	8302,	8540,	9017,	8665,	8659,	8466,	8394,	8369,	8887,	8903,	8534,	9028,	10.56,	9.61,	10.62,	0.00,	14.50,	8.71,	1.36,	8.61,	1.02,	10.87,	13.35,	3.85,	12.44,	3.54,	1696,	1684
59,	8297,	7955,	8302,	8556,	9026,	8656,	8676,	8461,	8390,	8377,	8863,	8898,	8540,	9025,	10.56,	9.61,	10.62,	0.00,	14.50,	8.71,	1.36,	8.61,	1.02,	10.87,	13.35,	3.85,	12.44,	3.54,	1695,	1683
60,	8278,	7940,	8275,	8537,	9001,	8642,	8648,	8455,	8372,	8348,	8833,	8879,	8510,	9007,	10.56,	9.61,	10.62,	0.00,	14.50,	8.71,	1.36,	8.61,	1.02,	10.87,	13.35,	3.85,	12.44,	3.54,	1696,	1682
61,	8253,	7918,	8248,	8504,	8980,	8642,	8643,	8455,	8367,	8322,	8835,	8864,	8490,	8995,	10.56,	9.61,	10.62,	0.00,	14.50,	8.71,	1.36,	8.61,	1.02,	10.87,	13.35,	3.85,	12.44,	3.54,	1696,	1680
62,	8249,	7911,	8239,	8491,	8984,	8646,	8649,	8460,	8364,	8315,	8834,	8861,	8494,	8998,	10.56,	9.61,	10.62,	0.00,	14.50,	8.71,	1.36,	8.61,	1.02,	10.87,	13.35,	3.85,	12.44,	3.54,	1695,	1680
63,	8256,	7910,	8241,	8493,	8977,	8641,	8618,	8456,	8361,	8313,	8812,	8858,	8488,	9000,	10.56,	9.61,	10.62,	0.00,	14.50,	8.71,	1.36,	8.61,	1.02,	10.87,	13.35,	3.85,	12.44,	3.54,	1696,	1680
64,	8257,	7908,	8244,	8495,	8966,	8640,	8590,	8445,	8364,	8318,	8821,	8862,	8486,	9001,	10.58,	9.61,	10.62,	0.00,	14.50,	8.71,	1.36,	8.61,	1.02,	10.87,	13.35,	3.85,	12.44,	3.54,	1696,	1681
65,	8262,	7915,	8248,	8491,	8974,	8645,	8593,	8441,	8369,	8324,	8846,	8873,	8494,	9008,	10.58,	9.61,	10.62,	0.00,	14.50,	8.71,	1.36,	8.61,	1.02,	10.87,	13.35,	3.85,	12.44,	3.54,	1696,	1683
66,	8272,	7924,	8256,	8506,	8990,	8648,	8609,	8449,	8368,	8333,	8844,	8872,	8507,	9005,	10.58,	9.61,	10.68,	0.00,	14.50,	8.71,	1.36,	8.61,	1.02,	10.87,	13.35,	3.85,	12.44,	3.54,	1696,	1684
67,	8281,	7923,	8265,	8515,	8997,	8655,	8625,	8462,	8367,	8341,	8846,	8882,	8513,	9009,	10.58,	9.61,	10.68,	0.01,	14.50,	8.71,	1.36,	8.61,	1.02,	10.87,	13.35,	3.85,	12.44,	3.54,	1696,	1683
68,	8274,	7925,	8264,	8503,	9001,	8659,	8636,	8462,	8373,	8340,	8861,	8892,	8509,	9018,	10.58,	9.61,	10.68,	0.01,	14.46,	8.71,	1.36,	8.61,	1.02,	10.87,	13.35,	3.85,	12.44,	3.54,	1697,	1684
69,	8268,	7932,	8259,	8504,	9006,	8654,	8652,	8456,	8383,	8345,	8869,	8883,	8509,	9015,	10.58,	9.61,	10.68,	0.01,	14.46,	8.71,	1.36,	8.61,	1.02,	10.87,	13.35,	3.85,	12.44,	3.54,	1697,	1683
70,	8283,	7936,	8264,	8516,	9006,	8661,	8683,	8463,	8388,	8363,	8870,	8884,	8524,	9018,	10.58,	9.61,	10.68,	0.01,	14.46,	8.71,	1.41,	8.61,	1.02,	10.87,	13.35,	3.85,	12.44,	3.54,	1697,	1684
71,	8273,	7913,	8250,	8498,	8994,	8659,	8674,	8459,	8380,	8360,	8846,	8877,	8529,	9005,	10.58,	9.61,	10.68,	0.01,	14.46,	8.71,	1.41,	8.62,	1.02,	10.87,	13.35,	3.85,	12.44,	3.54,	1696,	1684
72,	8249,	7884,	8225,	8476,	8976,	8643,	8619,	8446,	8366,	8333,	8822,	8866,	8491,	8989,	10.58,	9.61,	10.68,	0.01,	14.46,	8.71,	1.41,	8.62,	1.05,	10.87,	13.35,	3.85,	12.44,	3.54,	1697,	1684
73,	8273,	7914,	8247,	8504,	8990,	8658,	8629,	8456,	8374,	8347,	8858,	8882,	8485,	9009,	10.58,	9.61,	10.68,	0.01,	14.46,	8.71,	1.41,	8.62,	1.05,	10.86,	13.35,	3.85,	12.44,	3.54,	1697,	1684
74,	8300,	7945,	8276,	8529,	9017,	8675,	8681,	8470,	8394,	8384,	8897,	8896,	8534,	9029,	10.58,	9.61,	10.68,	0.01,	14.46,	8.71,	1.41,	8.62,	1.05,	10.86,	13.35,	3.85,	12.44,	3.54,	1697,	1686
75,	8284,	7920,	8259,	8499,	9001,	8656,	8667,	8466,	8389,	8379,	8864,	8887,	8543,	9017,	10.58,	9.61,	10.68,	0.01,	14.46,	8.71,	1.41,	8.62,	1.05,	10.86,	13.35,	3.96,	12.44,	3.54,	1698,	1686
76,	8258,	7897,	8230,	8472,	8981,	8647,	8643,	8459,	8369,	8348,	8826,	8869,	8510,	8996,	10.58,	9.61,	10.68,	0.01,	14.46,	8.71,	1.41,	8.62,	1.05,	10.86,	13.35,	3.96,	12.49,	3.54,	1696,	1688
77,	8259,	7912,	8235,	8490,	8997,	8665,	8664,	8462,	8369,	8336,	8836,	8868,	8505,	8999,	10.58,	9.61,	10.68,	0.01,	14.46,	8.71,	1.41,	8.62,	1.05,	10.86,	13.35,	3.96,	12.49,	3.50,	1698,	1686
78,	8272,	7925,	8253,	8507,	9007,	8666,	8673,	8464,	8378,	8348,	8860,	8881,	8515,	9009,	10.58,	9.61,	10.68,	0.01,	14.46,	8.71,	1.41,	8.62,	1.05,	10.86,	13.35,	3.96,	12.49,	3.50,	1696,	1686
79,	8271,	7913,	8251,	8500,	8996,	8649,	8665,	8464,	8381,	8371,	8861,	8879,	8503,	9002,	10.58,	9.61,	10.68,	0.01,	14.46,	8.71,	1.41,	8.62,	1.05,	10.86,	13.35,	3.93,	12.49,	3.50,	1697,	1687
80,	8278,	7916,	8247,	8497,	8984,	8642,	8656,	8467,	8386,	8377,	8847,	8882,	8506,	9014,	10.58,	9.61,	10.68,	0.01,	14.46,	8.71,	1.41,	8.62,	1.05,	10.86,	13.35,	3.93,	12.44,	3.50,	1697,	1685
81,	8288,	7931,	8256,	8512,	8974,	8636,	8638,	8462,	8385,	8367,	8852,	8890,	8535,	9029,	10.58,	9.61,	10.68,	0.01,	14.46,	8.71,	1.41,	8.62,	1.05,	10.86,	13.35,	3.93,	12.44,	3.53,	1698,	1686
82,	8294,	7934,	8272,	8524,	8981,	8640,	8637,	8458,	8382,	8371,	8888,	8898,	8546,	9030,	10.58,	9.61,	10.68,	0.01,	14.46,	8.71,	1.41,	8.62,	1.05,	10.86,	13.35,	3.93,	12.44,	3.53,	1698,	1687
83,	8298,	7931,	8276,	8523,	8997,	8656,	8643,	8465,	8384,	8380,	8907,	8911,	8536,	9034,	10.58,	9.61,	10.68,	0.01,	14.46,	8.71,	1.41,	8.62,	1.05,	10.86,	13.35,	3.96,	12.44,	3.53,	1699,	1688
84,	8275,	7915,	8247,	8515,	8991,	8651,	8627,	8457,	8378,	8366,	8872,	8888,	8525,	9013,	10.58,	9.61,	10.68,	0.01,	14.46,	8.71,	1.41,	8.62,	1.05,	10.86,	13.35,	3.96,	12.49,	3.53,	1699,	1686
85,	8244,	7895,	8218,	8484,	8970,	8639,	8615,	8441,	8357,	8320,	8805,	8858,	8490,	8987,	10.58,	9.61,	10.68,	0.01,	14.46,	8.71,	1.41,	8.62,	1.05,	10.86,	13.35,	3.96,	12.49,	3.54,	1699,	1687
86,	8228,	7882,	8198,	8444,	8952,	8637,	8617,	8442,	8353,	8265,	8761,	8848,	8439,	8978,	10.58,	9.61,	10.68,	0.01,	14.46,	8.71,	1.41,	8.62,	1.05,	10.86,	13.35,	3.96,	12.49,	3.54,	1700,	1686
87,	8237,	7890,	8201,	8455,	8954,	8641,	8628,	8455,	8377,	8272,	8791,	8851,	8460,	8981,	10.58,	9.61,	10.68,	0.01,	14.46,	8.71,	1.41,	8.62,	1.05,	10.86,	13.35,	3.91,	12.49,	3.54,	1699,	1687
88,	8285,	7920,	8251,	8508,	8979,	8662,	8651,	8470,	8394,	8337,	8862,	8892,	8529,	9018,	10.58,	9.61,	10.68,	0.01,	14.46,	8.71,	1.41,	8.62,	1.05,	10.86,	13.35,	3.91,	12.49,	3.54,	1701,	1688
89,	8301,	7933,	8273,	8526,	8999,	8663,	8659,	8462,	8382,	8370,	8885,	8909,	8543,	9028,	10.58,	9.61,	10.68,	0.01,	14.46,	8.71,	1.41,	8.62,	1.05,	10.86,	13.35,	3.91,	12.49,	3.54,	1699,	1689
90,	8268,	7926,	8247,	8506,	8990,	8644,	8642,	8446,	8366,	8351,	8852,	8886,	8508,	9004,	10.58,	9.61,	10.68,	0.01,	14.46,	8.71,	1.41,	8.62,	1.05,	10.86,	13.36,	3.91,	12.49,	3.54,	1700,	1690
91,	8270,	7933,	8247,	8510,	8986,	8654,	8642,	8452,	8373,	8343,	8844,	8892,	8498,	9013,	10.58,	9.61,	10.68,	0.01,	14.46,	8.71,	1.41,	8.62,	1.05,	10.86,	13.36,	3.94,	12.49,	3.54,	1700,	1688
92,	8290,	7933,	8264,	8537,	9004,	8674,	8674,	8461,	8384,	8351,	8871,	8906,	8523,	9022,	10.58,	9.61,	10.68,	0.01,	14.46,	8.71,	1.41,	8.62,	1.05,	10.86,	13.36,	3.94,	12.47,	3.54,	1700,	1689
93,	8293,	7931,	8264,	8543,	9015,	8679,	8700,	8462,	8385,	8350,	8875,	8903,	8535,	9017,	10.58,	9.61,	10.68,	0.01,	14.46,	8.71,	1.41,	8.62,	1.05,	10.86,	13.36,	3.94,	12.47,	3.50,	1700,	1686
94,	8278,	7925,	8241,	8512,	9000,	8668,	8693,	8455,	8377,	8344,	8846,	8885,	8512,	9005,	10.58,	9.61,	10.68,	0.01,	14.46,	8.71,	1.41,	8.62,	1.05,	10.86,	13.35,	3.94,	12.47,	3.50,	1700,	1686
95,	8247,	7903,	8215,	8480,	8978,	8645,	8671,	8453,	8367,	8325,	8827,	8867,	8481,	8992,	10.58,	9.61,	10.68,	0.01,	14.46,	8.71,	1.41,	8.62,	1.05,	10.86,	13.35,	3.96,	12.47,	3.50,	1699,	1685
96,	8247,	7907,	8226,	8494,	8984,	8643,	8668,	8465,	8383,	8321,	8839,	8875,	8484,	9002,	10.58,	9.61,	10.68,	0.01,	14.46,	8.71,	1.41,	8.62,	1.05,	10.86,	13.35,	3.96,	12.44,	3.50,	1698,	1685
97,	8273,	7925,	8243,	8521,	8996,	8655,	8675,	8467,	8396,	8352,	8850,	8886,	8503,	9011,	10.58,	9.61,	10.68,	0.01,	14.46,	8.71,	1.41,	8.62,	1.05,	10.86,	13.35,	3.96,	12.44,	3.54,	1699,	1683
98,	8263,	7906,	8229,	8502,	8973,	8644,	8661,	8452,	8377,	8349,	8831,	8879,	8495,	9000,	10.58,	9.61,	10.68,	0.01,	14.46,	8.71,	1.41,	8.62,	1.05,	10.86,	13.35,	3.96,	12.44,	3.54,	1696,	1684
99,	8242,	7890,	8215,	8484,	8957,	8640,	8649,	8447,	8371,	8328,	8830,	8877,	8488,	8994,	10.58,	9.61,	10.68,	0.01,	14.46,	8.71,	1.41,	8.62,	1.05,	10.86,	13.35,	3.93,	12.44,	3.54,	1697,	1683
100,	8259,	7922,	8231,	8509,	8982,	8659,	8662,	8465,	8391,	8349,	8858,	8892,	8504,	9009,	10.58,	9.61,	10.68,	0.01,	14.46,	8.71,	1.41,	8.62,	1.05,	10.86,	13.35,	3.93,	12.47,	3.54,	1695,	1683
101,	8276,	7942,	8245,	8520,	9005,	8666,	8678,	8471,	8391,	8371,	8863,	8898,	8514,	9017,	10.58,	9.61,	10.68,	0.01,	14.46,	8.71,	1.41,	8.62,	1.05,	10.86,	13.35,	3.93,	12.47,	3.53,	1695,	1683
102,	8256,	7913,	8232,	8499,	8994,	8656,	8671,	8458,	8369,	8346,	8840,	8883,	8488,	9001,	10.58,	9.61,	10.68,	0.01,	14.46,	8.71,	1.41,	8.62,	1.05,	10.86,	13.38,	3.93,	12.47,	3.53,	1696,	1681
103,	8238,	7891,	8215,	8485,	8969,	8646,	8636,	8455,	8361,	8314,	8820,	8875,	8464,	8987,	10.58,	9.61,	10.68,	0.01,	14.46,	8.71,	1.41,	8.62,	1.05,	10.86,	13.38,	3.91,	12.47,	3.53,	1695,	1681
104,	8237,	7895,	8205,	8486,	8957,	8642,	8606,	8459,	8371,	8308,	8816,	8878,	8473,	8985,	10.58,	9.61,	10.68,	0.01,	14.46,	8.71,	1.41,	8.62,	1.05,	10.86,	13.38,	3.91,	12.47,	3.53,	1696,	1679
105,	8233,	7896,	8198,	8480,	8961,	8641,	8609,	8459,	8373,	8315,	8805,	8873,	8480,	8989,	10.58,	9.61,	10.68,	0.01,	14.46,	8.71,	1.41,	8.62,	1.05,	10.86,	13.38,	3.91,	12.47,	3.51,	1694,	1680
106,	8236,	7893,	8198,	8467,	8959,	8640,	8620,	8455,	8364,	8307,	8798,	8870,	8473,	8989,	10.58,	9.61,	10.68,	0.01,	14.46,	8.71,	1.41,	8.62,	1.05,	10.86,	13.33,	3.91,	12.47,	3.51,	1694,	1679
107,	8244,	7906,	8208,	8481,	8958,	8644,	8628,	8452,	8364,	8306,	8815,	8880,	8475,	8989,	10.58,	9.61,	10.68,	0.01,	14.46,	8.71,	1.41,	8.62,	1.05,	10.86,	13.33,	3.91,	12.47,	3.51,	1694,	1680
108,	8256,	7923,	8228,	8520,	8981,	8661,	8642,	8456,	8373,	8323,	8820,	8886,	8482,	9000,	10.58,	9.61,	10.68,	0.01,	14.46,	8.71,	1.41,	8.62,	1.05,	10.86,	13.33,	3.91,	12.47,	3.51,	1694,	1681
109,	8261,	7922,	8228,	8532,	8993,	8665,	8643,	8458,	8369,	8328,	8805,	8875,	8476,	9003,	10.58,	9.61,	10.68,	0.01,	14.46,	8.71,	1.41,	8.62,	1.05,	10.86,	13.33,	3.91,	12.47,	3.54,	1693,	1682
110,	8252,	7909,	8206,	8506,	8971,	8645,	8624,	8449,	8358,	8305,	8810,	8867,	8468,	8991,	10.58,	9.61,	10.68,	0.01,	14.46,	8.71,	1.41,	8.62,	1.05,	10.86,	13.33,	3.91,	12.47,	3.54,	1694,	1682
111,	8246,	7896,	8195,	8488,	8957,	8639,	8621,	8444,	8360,	8282,	8816,	8871,	8465,	8985,	10.58,	9.61,	10.68,	0.01,	14.46,	8.71,	1.41,	8.62,	1.05,	10.86,	13.33,	3.93,	12.47,	3.54,	1693,	1681
112,	8249,	7894,	8198,	8497,	8977,	8654,	8645,	8451,	8371,	8286,	8805,	8869,	8464,	8989,	10.58,	9.61,	10.68,	0.01,	14.46,	8.71,	1.41,	8.62,	1.05,	10.86,	13.33,	3.93,	12.46,	3.54,	1693,	1682
113,	8250,	7903,	8200,	8503,	8987,	8663,	8661,	8456,	8373,	8303,	8800,	8868,	8470,	8992,	10.58,	9.61,	10.68,	0.01,	14.46,	8.71,	1.41,	8.62,	1.05,	10.86,	13.33,	3.93,	12.46,	3.51,	1694,	1680
114,	8237,	7903,	8187,	8485,	8965,	8656,	8649,	8451,	8365,	8297,	8799,	8869,	8463,	8985,	10.58,	9.61,	10.68,	0.01,	14.46,	8.71,	1.41,	8.62,	1.05,	10.86,	13.35,	3.93,	12.46,	3.51,	1693,	1681
115,	8229,	7893,	8176,	8471,	8959,	8654,	8639,	8449,	8362,	8280,	8807,	8863,	8450,	8980,	10.58,	9.61,	10.68,	0.01,	14.46,	8.71,	1.41,	8.62,	1.05,	10.86,	13.35,	3.96,	12.46,	3.51,	1695,	1680
116,	8240,	7896,	8183,	8487,	8978,	8667,	8649,	8455,	8373,	8285,	8827,	8867,	8464,	8991,	10.58,	9.61,	10.68,	0.01,	14.46,	8.71,	1.41,	8.62,	1.05,	10.86,	13.35,	3.96,	12.46,	3.51,	1695,	1679
117,	8244,	7900,	8190,	8493,	8979,	8663,	8654,	8455,	8374,	8299,	8825,	8870,	8486,	8991,	10.58,	9.61,	10.68,	0.01,	14.46,	8.71,	1.41,	8.62,	1.05,	10.86,	13.35,	3.96,	12.46,	3.53,	1695,	1680
118,	8240,	7891,	8185,	8484,	8953,	8646,	8638,	8448,	8364,	8298,	8802,	8862,	8481,	8985,	10.58,	9.61,	10.68,	0.01,	14.46,	8.71,	1.41,	8.62,	1.05,	10.86,	13.36,	3.96,	12.46,	3.53,	1694,	1682
119,	8250,	7895,	8186,	8488,	8951,	8652,	8632,	8450,	8364,	8309,	8808,	8865,	8474,	8993,	10.58,	9.61,	10.68,	0.01,	14.46,	8.71,	1.41,	8.62,	1.05,	10.86,	13.36,	3.91,	12.46,	3.53,	1695,	1683
120,	8251,	7906,	8186,	8490,	8968,	8666,	8646,	8456,	8380,	8333,	8831,	8872,	8489,	8997,	10.58,	9.61,	10.68,	0.01,	14.46,	8.71,	1.41,	8.62,	1.05,	10.86,	13.36,	3.91,	12.47,	3.53,	1694,	1684
121,	8241,	7901,	8176,	8480,	8961,	8662,	8648,	8456,	8385,	8329,	8834,	8867,	8489,	8992,	10.58,	9.61,	10.68,	0.01,	14.46,	8.71,	1.41,	8.62,	1.05,	10.86,	13.36,	3.91,	12.47,	3.50,	1695,	1685
122,	8248,	7899,	8179,	8481,	8953,	8659,	8643,	8459,	8373,	8309,	8833,	8866,	8477,	8997,	10.58,	9.61,	10.68,	0.01,	14.46,	8.71,	1.41,	8.62,	1.05,	10.86,	13.38,	3.91,	12.47,	3.50,	1694,	1684
123,	8258,	7905,	8189,	8495,	8970,	8666,	8645,	8463,	8370,	8313,	8840,	8875,	8488,	9002,	10.58,	9.61,	10.68,	0.01,	14.46,	8.71,	1.41,	8.62,	1.05,	10.86,	13.38,	3.93,	12.47,	3.50,	1695,	1685
124,	8261,	7913,	8198,	8513,	8978,	8670,	8658,	8463,	8381,	8337,	8841,	8885,	8507,	9003,	10.58,	9.61,	10.68,	0.01,	14.46,	8.71,	1.41,	8.62,	1.05,	10.86,	13.38,	3.93,	12.47,	3.50,	1694,	1687
125,	8266,	7919,	8202,	8523,	8969,	8669,	8672,	8463,	8382,	8339,	8838,	8885,	8510,	9011,	10.58,	9.61,	10.68,	0.01,	14.46,	8.71,	1.41,	8.62,	1.05,	10.86,	13.38,	3.93,	12.47,	3.50,	1694,	1688
126,	8263,	7916,	8193,	8512,	8972,	8666,	8666,	8459,	8377,	8322,	8851,	8878,	8498,	9009,	10.58,	9.61,	10.68,	0.01,	14.46,	8.71,	1.41,	8.62,	1.05,	10.86,	13.36,	3.93,	12.47,	3.50,	1694,	1689
127,	8262,	7917,	8196,	8509,	8985,	8672,	8659,	8459,	8384,	8329,	8876,	8881,	8498,	9000,	10.58,	9.61,	10.68,	0.01,	14.46,	8.71,	1.41,	8.62,	1.05,	10.86,	13.36,	3.96,	12.47,	3.50,	1694,	1688
0,	8281,	7922,	8215,	8530,	8986,	8669,	8672,	8466,	8378,	8348,	8870,	8901,	8530,	9026,	10.31,	9.61,	10.68,	0.01,	14.46,	8.71,	1.41,	8.62,	1.05,	10.86,	13.36,	3.96,	12.47,	3.50,	1694,	1687
1,	8266,	7903,	8197,	8508,	8963,	8658,	8653,	8459,	8374,	8325,	8832,	8884,	8516,	9017,	10.31,	9.50,	10.68,	0.01,	14.46,	8.71,	1.41,	8.62,	1.05,	10.86,	13.36,	3.96,	12.47,	3.50,	1693,	1687
2,	8274,	7925,	8210,	8526,	8977,	8674,	8670,	8473,	8392,	8352,	8857,	8891,	8523,	9015,	10.31,	9.50,	10.70,	0.01,	14.46,	8.71,	1.41,	8.62,	1.05,	10.86,	13.36,	3.96,	12.47,	3.50,	1693,	1689
3,	8286,	7950,	8223,	8547,	9007,	8686,	8687,	8478,	8395,	8385,	8902,	8905,	8538,	9028,	10.31,	9.50,	10.70,	0.04,	14.46,	8.71,	1.41,	8.62,	1.05,	10.86,	13.36,	3.96,	12.47,	3.50,	1695,	1690
4,	8270,	7928,	8203,	8527,	9002,	8676,	8671,	8458,	8378,	8353,	8881,	8893,	8519,	9021,	10.31,	9.50,	10.70,	0.04,	14.50,	8.71,	1.41,	8.62,	1.05,	10.86,	13.36,	3.96,	12.47,	3.50,	1692,	1692
5,	8253,	7905,	8189,	8509,	8980,	8667,	8663,	8453,	8372,	8312,	8838,	8879,	8495,	9002,	10.31,	9.50,	10.70,	0.04,	14.50,	8.76,	1.41,	8.62,	1.05,	10.86,	13.36,	3.96,	12.47,	3.50,	1694,	1692
6,	8251,	7909,	8186,	8504,	8969,	8664,	8667,	8458,	8375,	8318,	8832,	8880,	8494,	8999,	10.31,	9.50,	10.70,	0.04,	14.50,	8.76,	1.41,	8.62,	1.05,	10.86,	13.36,	3.96,	12.47,	3.50,	1692,	1692
7,	8252,	7917,	8184,	8499,	8963,	8663,	8664,	8456,	8378,	8335,	8853,	8882,	8504,	9006,	10.31,	9.50,	10.70,	0.04,	14.50,	8.76,	1.41,	8.47,	1.05,	10.86,	13.36,	3.96,	12.47,	3.50,	1693,	1694
8,	8261,	7915,	8191,	8509,	8968,	8670,	8670,	8459,	8380,	8344,	8875,	8889,	8510,	9010,	10.31,	9.50,	10.70,	0.04,	14.50,	8.76,	1.41,	8.47,	1.04,	10.86,	13.36,	3.96,	12.47,	3.50,	1693,	1695
9,	8267,	7904,	8188,	8514,	8980,	8677,	8678,	8462,	8378,	8339,	8869,	8893,	8498,	9008,	10.31,	9.50,	10.70,	0.04,	14.50,	8.76,	1.41,	8.47,	1.04,	10.87,	13.36,	3.96,	12.47,	3.50,	1693,	1694
10,	8258,	7899,	8177,	8503,	8981,	8675,	8670,	8458,	8374,	8318,	8834,	8885,	8484,	9007,	10.31,	9.50,	10.70,	0.04,	14.50,	8.76,	1.41,	8.47,	1.04,	10.87,	13.36,	3.96,	12.47,	3.50,	1693,	1694
11,	8253,	7913,	8185,	8508,	8978,	8670,	8667,	8460,	8373,	8315,	8829,	8880,	8490,	9009,	10.31,	9.50,	10.70,	0.04,	14.50,	8.76,	1.41,	8.47,	1.04,	10.87,	13.36,	4.01,	12.47,	3.50,	1695,	1694
12,	8256,	7923,	8191,	8517,	8976,	8661,	8672,	8469,	8379,	8327,	8852,	8882,	8499,	9004,	10.31,	9.50,	10.70,	0.04,	14.50,	8.76,	1.41,	8.47,	1.04,	10.87,	13.36,	4.01,	12.44,	3.50,	1695,	1692
13,	8252,	7907,	8175,	8502,	8966,	8649,	8660,	8464,	8380,	8321,	8846,	8882,	8492,	8996,	10.31,	9.50,	10.70,	0.04,	14.50,	8.76,	1.41,	8.47,	1.04,	10.87,	13.36,	4.01,	12.44,	3.44,	1695,	1693
14,	8245,	7902,	8168,	8495,	8955,	8647,	8643,	8452,	8373,	8310,	8827,	8878,	8476,	8995,	10.31,	9.50,	10.70,	0.04,	14.50,	8.76,	1.41,	8.47,	1.04,	10.87,	13.38,	4.01,	12.44,	3.44,	1696,	1692
15,	8247,	7916,	8175,	8513,	8962,	8659,	8655,	8456,	8375,	8319,	8835,	8878,	8475,	8999,	10.31,	9.50,	10.70,	0.04,	14.50,	8.76,	1.41,	8.47,	1.04,	10.87,	13.38,	4.01,	12.44,	3.44,	1695,	1692
16,	8269,	7931,	8192,	8535,	8988,	8674,	8691,	8472,	8390,	8336,	8859,	8891,	8499,	9011,	10.31,	9.50,	10.70,	0.04,	14.50,	8.76,	1.41,	8.47,	1.04,	10.87,	13.38,	4.01,	12.44,	3.44,	1697,	1692
17,	8292,	7935,	8209,	8542,	9000,	8673,	8706,	8473,	8391,	8351,	8869,	8898,	8514,	9018,	10.31,	9.50,	10.70,	0.04,	14.50,	8.76,	1.41,	8.47,	1.04,	10.87,	13.38,	4.01,	12.44,	3.44,	1695,	1693
18,	8275,	7922,	8197,	8533,	8985,	8664,	8688,	8456,	8376,	8340,	8859,	8885,	8501,	9007,	10.31,	9.50,	10.70,	0.04,	14.50,	8.76,	1.41,	8.47,	1.04,	10.87,	13.38,	4.01,	12.44,	3.44,	1696,	1693
19,	8258,	7914,	8183,	8532,	8977,	8664,	8671,	8451,	8371,	8318,	8855,	8883,	8497,	9001,	10.31,	9.50,	10.70,	0.04,	14.50,	8.76,	1.41,	8.47,	1.04,	10.87,	13.38,	4.01,	12.44,	3.44,	1696,	1691
20,	8275,	7930,	8196,	8543,	8998,	8673,	8681,	8464,	8381,	8340,	8862,	8898,	8518,	9012,	10.31,	9.50,	10.70,	0.04,	14.50,	8.76,	1.41,	8.47,	1.04,	10.87,	13.38,	4.01,	12.44,	3.44,	1696,	1690
21,	8290,	7953,	8212,	8543,	9017,	8683,	8710,	8473,	8396,	8371,	8870,	8907,	8537,	9027,	10.31,	9.50,	10.70,	0.04,	14.50,	8.76,	1.41,	8.47,	1.04,	10.87,	13.38,	4.01,	12.44,	3.44,	1696,	1689
22,	8290,	7956,	8213,	8543,	9017,	8689,	8729,	8476,	8398,	8370,	8886,	8906,	8539,	9036,	10.31,	9.50,	10.70,	0.04,	14.50,	8.76,	1.41,	8.47,	1.04,	10.87,	13.38,	4.01,	12.44,	3.44,	1697,	1689
23,	8289,	7942,	8209,	8555,	9009,	8678,	8710,	8475,	8389,	8370,	8891,	8902,	8529,	9029,	10.31,	9.50,	10.70,	0.04,	14.50,	8.76,	1.41,	8.47,	1.04,	10.87,	13.38,	4.01,	12.44,	3.44,	1696,	1689
24,	8280,	7930,	8200,	8549,	8992,	8664,	8680,	8466,	8381,	8362,	8862,	8900,	8515,	9016,	10.31,	9.50,	10.70,	0.04,	14.50,	8.76,	1.41,	8.47,	1.04,	10.87,	13.38,	4.01,	12.44,	3.44,	1696,	1690
25,	8265,	7929,	8190,	8528,	8979,	8665,	8675,	8459,	8379,	8339,	8838,	8893,	8502,	9009,	10.31,	9.50,	10.70,	0.04,	14.50,	8.76,	1.41,	8.47,	1.04,	10.87,	13.38,	4.01,	12.44,	3.44,	1697,	1689
26,	8265,	7928,	8186,	8520,	8977,	8667,	8676,	8457,	8379,	8333,	8850,	8886,	8494,	9010,	10.31,	9.50,	10.70,	0.04,	14.50,	8.76,	1.41,	8.47,	1.04,	10.87,	13.38,	4.01,	12.44,	3.44,	1696,	1690
27,	8281,	7927,	8194,	8530,	8989,	8671,	8674,	8457,	8380,	8335,	8869,	8897,	8504,	9019,	10.31,	9.50,	10.70,	0.04,	14.50,	8.76,	1.41,	8.47,	1.04,	10.87,	13.38,	4.01,	12.44,	3.44,	1697,	1689
28,	8285,	7935,	8199,	8542,	9005,	8672,	8681,	8463,	8384,	8334,	8871,	8909,	8521,	9024,	10.31,	9.50,	10.70,	0.04,	14.50,	8.76,	1.41,	8.47,	1.04,	10.87,	13.38,	4.01,	12.44,	3.44,	1697,	1688
29,	8279,	7940,	8198,	8544,	8993,	8662,	8682,	8471,	8390,	8346,	8866,	8910,	8524,	9020,	10.31,	9.50,	10.70,	0.04,	14.50,	8.76,	1.41,	8.47,	1.04,	10.87,	13.38,	4.01,	12.44,	3.44,	1698,	1689
30,	8280,	7937,	8205,	8544,	8983,	8664,	8687,	8470,	8393,	8361,	8876,	8910,	8528,	9023,	10.31,	9.50,	10.70,	0.04,	14.50,	8.76,	1.41,	8.47,	1.04,	10.87,	13.38,	4.01,	12.44,	3.44,	1698,	1689
31,	8287,	7935,	8215,	8545,	9003,	8678,	8702,	8471,	8395,	8362,	8899,	8912,	8538,	9037,	10.31,	9.50,	10.70,	0.04,	14.50,	8.76,	1.41,	8.47,	1.04,	10.87,	13.38,	4.01,	12.44,	3.44,	1698,	1690
32,	8281,	7928,	8204,	8535,	9003,	8676,	8695,	8474,	8392,	8357,	8890,	8905,	8529,	9027,	10.31,	9.50,	10.70,	0.04,	14.50,	8.76,	1.41,	8.47,	1.04,	10.87,	13.38,	4.01,	12.44,	3.44,	1698,	1689
33,	8262,	7918,	8187,	8521,	8980,	8668,	8674,	8466,	8383,	8349,	8859,	8897,	8513,	9004,	10.31,	9.50,	10.70,	0.04,	14.50,	8.76,	1.41,	8.47,	1.04,	10.87,	13.38,	4.01,	12.44,	3.44,	1698,	1690
34,	8262,	7920,	8190,	8529,	8988,	8670,	8673,	8455,	8382,	8343,	8859,	8902,	8515,	9012,	10.31,	9.50,	10.70,	0.04,	14.50,	8.76,	1.41,	8.47,	1.04,	10.87,	13.38,	4.01,	12.44,	3.44,	1699,	1688
35,	8279,	7931,	8199,	8545,	9006,	8670,	8693,	8457,	8388,	8348,	8868,	8912,	8513,	9030,	10.31,	9.50,	10.70,	0.04,	14.50,	8.76,	1.41,	8.47,	1.04,	10.87,	13.38,	4.01,	12.44,	3.44,	1699,	1689
36,	8279,	7930,	8194,	8538,	8992,	8663,	8693,	8464,	8383,	8344,	8856,	8910,	8503,	9022,	10.31,	9.50,	10.70,	0.04,	14.50,	8.76,	1.41,	8.47,	1.04,	10.87,	13.38,	4.01,	12.44,	3.44,	1699,	1688
37,	8268,	7923,	8185,	8522,	8978,	8656,	8668,	8466,	8381,	8342,	8854,	8906,	8519,	9011,	10.31,	9.50,	10.70,	0.04,	14.50,	8.76,	1.41,	8.47,	1.04,	10.87,	13.38,	4.01,	12.44,	3.44,	1698,	1689
38,	8272,	7925,	8187,	8527,	8983,	8658,	8660,	8462,	8388,	8352,	8877,	8904,	8528,	9017,	10.31,	9.50,	10.70,	0.04,	14.50,	8.76,	1.41,	8.47,	1.04,	10.87,	13.38,	4.01,	12.44,	3.44,	1700,	1687
39,	8275,	7923,	8192,	8537,	8981,	8663,	8667,	8460,	8380,	8350,	8874,	8901,	8508,	9017,	10.31,	9.50,	10.70,	0.04,	14.50,	8.76,	1.41,	8.47,	1.04,	10.87,	13.38,	4.01,	12.44,	3.44,	1698,	1687
40,	8268,	7911,	8183,	8527,	8972,	8658,	8665,	8459,	8371,	8328,	8849,	8898,	8501,	9014,	10.31,	9.50,	10.70,	0.04,	14.50,	8.76,	1.41,	8.47,	1.04,	10.87,	13.38,	4.01,	12.44,	3.44,	1699,	1687
41,	8270,	7906,	8179,	8520,	8981,	8662,	8671,	8454,	8376,	8319,	8855,	8898,	8511,	9016,	10.31,	9.50,	10.70,	0.04,	14.50,	8.76,	1.41,	8.47,	1.04,	10.87,	13.38,	4.01,	12.44,	3.44,	1699,	1686
42,	8272,	7922,	8187,	8534,	8996,	8679,	8690,	8454,	8386,	8337,	8868,	8901,	8501,	9013,	10.31,	9.50,	10.70,	0.04,	14.50,	8.76,	1.41,	8.47,	1.04,	10.87,	13.38,	4.01,	12.44,	3.44,	1698,	1688
43,	8277,	7939,	8199,	8555,	9001,	8684,	8697,	8463,	8391,	8362,	8864,	8907,	8503,	9018,	10.31,	9.50,	10.70,	0.04,	14.50,	8.76,	1.41,	8.47,	1.04,	10.87,	13.38,	4.01,	12.44,	3.44,	1699,	1687
44,	8287,	7932,	8199,	8560,	9003,	8679,	8686,	8464,	8392,	8368,	8872,	8913,	8530,	9030,	10.31,	9.50,	10.70,	0.04,	14.50,	8.76,	1.41,	8.47,	1.04,	10.87,	13.38,	4.01,	12.44,	3.44,	1698,	1688
45,	8287,	7922,	8191,	8548,	9003,	8678,	8682,	8463,	8390,	8355,	8879,	8912,	8526,	9026,	10.31,	9.50,	10.70,	0.04,	14.50,	8.76,	1.41,	8.47,	1.04,	10.87,	13.38,	4.01,	12.44,	3.44,	1697,	1687
46,	8287,	7938,	8191,	8549,	8998,	8676,	8694,	8467,	8384,	8352,	8867,	8909,	8502,	9018,	10.31,	9.50,	10.70,	0.04,	14.50,	8.76,	1.41,	8.47,	1.04,	10.87,	13.38,	4.01,	12.44,	3.44,	1696,	1688
47,	8286,	7952,	8197,	8559,	9000,	8677,	8698,	8464,	8378,	8356,	8862,	8905,	8506,	9021,	10.31,	9.50,	10.70,	0.04,	14.50,	8.76,	1.41,	8.47,	1.04,	10.87,	13.38,	4.01,	12.44,	3.44,	1697,	1689
48,	8272,	7931,	8184,	8541,	8993,	8674,	8684,	8455,	8374,	8339,	8865,	8897,	8514,	9020,	10.31,	9.50,	10.70,	0.04,	14.50,	8.76,	1.41,	8.47,	1.04,	10.87,	13.38,	4.01,	12.44,	3.44,	1696,	1690
49,	8264,	7912,	8169,	8523,	8979,	8664,	8671,	8460,	8374,	8321,	8852,	8895,	8499,	9011,	10.31,	9.50,	10.70,	0.04,	14.50,	8.76,	1.41,	8.47,	1.04,	10.87,	13.38,	4.01,	12.44,	3.44,	1695,	1689
50,	8271,	7925,	8181,	8539,	8992,	8668,	8680,	8467,	8379,	8327,	8842,	8897,	8492,	9012,	10.31,	9.50,	10.70,	0.04,	14.50,	8.76,	1.41,	8.47,	1.04,	10.87,	13.38,	4.01,	12.44,	3.44,	1695,	1689
51,	8268,	7936,	8181,	8548,	9001,	8680,	8695,	8465,	8385,	8335,	8841,	8893,	8494,	9013,	10.31,	9.50,	10.70,	0.04,	14.50,	8.76,	1.41,	8.47,	1.04,	10.87,	13.38,	4.01,	12.44,	3.44,	1695,	1688
52,	8257,	7928,	8165,	8531,	8976,	8676,	8689,	8465,	8381,	8329,	8837,	8886,	8486,	9006,	10.31,	9.50,	10.70,	0.04,	14.50,	8.76,	1.41,	8.47,	1.04,	10.87,	13.38,	4.01,	12.44,	3.44,	1695,	1688
53,	8246,	7911,	8153,	8514,	8955,	8661,	8656,	8457,	8367,	8310,	8833,	8881,	8475,	8993,	10.31,	9.50,	10.70,	0.04,	14.50,	8.76,	1.41,	8.47,	1.04,	10.87,	13.38,	4.01,	12.44,	3.44,	1695,	1688
54,	8231,	7895,	8139,	8499,	8954,	8649,	8624,	8444,	8354,	8273,	8815,	8869,	8453,	8978,	10.31,	9.50,	10.70,	0.04,	14.50,	8.76,	1.41,	8.47,	1.04,	10.87,	13.38,	4.01,	12.44,	3.44,	1694,	1689
55,	8236,	7897,	8137,	8497,	8957,	8661,	8630,	8446,	8358,	8259,	8793,	8868,	8441,	8982,	10.31,	9.50,	10.70,	0.04,	14.50,	8.76,	1.41,	8.47,	1.04,	10.87,	13.38,	4.01,	12.44,	3.44,	1695,	1689
56,	8256,	7912,	8151,	8511,	8967,	8676,	8655,	8454,	8372,	8288,	8793,	8884,	8463,	8998,	10.31,	9.50,	10.70,	0.04,	14.50,	8.76,	1.41,	8.47,	1.04,	10.87,	13.38,	4.01,	12.44,	3.44,	1694,	1690
57,	8255,	7917,	8152,	8522,	8972,	8673,	8675,	8460,	8382,	8322,	8813,	8886,	8480,	9005,	10.31,	9.50,	10.70,	0.04,	14.50,	8.76,	1.41,	8.47,	1.04,	10.87,	13.38,	4.01,	12.44,	3.44,	1695,	1689
58,	8250,	7910,	8149,	8523,	8965,	8665,	8675,	8466,	8387,	8332,	8838,	8884,	8479,	9003,	10.31,	9.50,	10.70,	0.04,	14.50,	8.76,	1.41,	8.47,	1.04,	10.87,	13.38,	4.01,	12.44,	3.44,	1695,	1689
59,	8259,	7916,	8163,	8525,	8971,	8672,	8672,	8469,	8383,	8334,	8860,	8898,	8490,	9004,	10.31,	9.50,	10.70,	0.04,	14.50,	8.76,	1.41,	8.47,	1.04,	10.87,	13.38,	4.01,	12.44,	3.44,	1695,	1691
60,	8267,	7933,	8168,	8529,	8986,	8686,	8692,	8468,	8377,	8352,	8859,	8903,	8506,	9010,	10.31,	9.50,	10.70,	0.04,	14.50,	8.76,	1.41,	8.47,	1.04,	10.87,	13.38,	4.01,	12.44,	3.44,	1696,	1689
61,	8268,	7932,	8166,	8535,	8999,	8691,	8714,	8468,	8381,	8368,	8847,	8895,	8506,	9015,	10.31,	9.50,	10.70,	0.04,	14.50,	8.76,	1.41,	8.47,	1.04,	10.87,	13.38,	4.01,	12.44,	3.44,	1695,	1691
62,	8261,	7922,	8171,	8546,	9004,	8681,	8708,	8464,	8383,	8351,	8859,	8898,	8505,	9013,	10.31,	9.50,	10.70,	0.04,	14.50,	8.76,	1.41,	8.47,	1.04,	10.87,	13.38,	4.01,	12.44,	3.44,	1696,	1689
63,	8245,	7912,	8160,	8536,	8978,	8660,	8674,	8455,	8374,	8323,	8874,	8897,	8503,	9003,	10.31,	9.50,	10.70,	0.04,	14.50,	8.76,	1.41,	8.47,	1.04,	10.87,	13.38,	4.01,	12.44,	3.44,	1696,	1688
64,	8252,	7917,	8163,	8528,	8968,	8664,	8659,	8462,	8380,	8332,	8877,	8898,	8507,	9009,	10.53,	9.50,	10.70,	0.04,	14.50,	8.76,	1.41,	8.47,	1.04,	10.87,	13.38,	4.01,	12.44,	3.44,	1696,	1686
65,	8279,	7932,	8193,	8552,	9003,	8687,	8676,	8473,	8393,	8366,	8884,	8917,	8530,	9030,	10.53,	9.48,	10.70,	0.04,	14.50,	8.76,	1.41,	8.47,	1.04,	10.87,	13.38,	4.01,	12.44,	3.44,	1696,	1686
66,	8277,	7934,	8198,	8561,	9003,	8679,	8674,	8460,	8385,	8371,	8873,	8913,	8529,	9026,	10.53,	9.48,	10.64,	0.04,	14.50,	8.76,	1.41,	8.47,	1.04,	10.87,	13.38,	4.01,	12.44,	3.44,	1696,	1685
67,	8259,	7923,	8181,	8546,	8969,	8663,	8650,	8447,	8378,	8355,	8859,	8896,	8508,	9012,	10.53,	9.48,	10.64,	0.03,	14.50,	8.76,	1.41,	8.47,	1.04,	10.87,	13.38,	4.01,	12.44,	3.44,	1695,	1686
68,	8267,	7922,	8185,	8549,	8982,	8676,	8664,	8461,	8388,	8363,	8893,	8907,	8521,	9024,	10.53,	9.48,	10.64,	0.03,	14.46,	8.76,	1.41,	8.47,	1.04,	10.87,	13.38,	4.01,	12.44,	3.44,	1697,	1688
69,	8279,	7930,	8193,	8554,	9010,	8687,	8702,	8472,	8387,	8377,	8914,	8915,	8534,	9030,	10.53,	9.48,	10.64,	0.03,	14.46,	8.80,	1.41,	8.47,	1.04,	10.87,	13.38,	4.01,	12.44,	3.44,	1695,	1688
70,	8264,	7923,	8172,	8532,	8989,	8668,	8693,	8458,	8372,	8352,	8861,	8892,	8497,	9010,	10.53,	9.48,	10.64,	0.03,	14.46,	8.80,	1.38,	8.47,	1.04,	10.87,	13.38,	4.01,	12.44,	3.44,	1695,	1688
71,	8250,	7916,	8160,	8524,	8971,	8660,	8670,	8455,	8373,	8327,	8827,	8882,	8470,	9004,	10.53,	9.48,	10.64,	0.03,	14.46,	8.80,	1.38,	8.68,	1.04,	10.87,	13.38,	4.01,	12.44,	3.44,	1695,	1686
72,	8264,	7925,	8180,	8547,	8994,	8678,	8690,	8470,	8389,	8346,	8860,	8902,	8496,	9018,	10.53,	9.48,	10.64,	0.03,	14.46,	8.80,	1.38,	8.68,	1.04,	10.87,	13.38,	4.01,	12.44,	3.44,	1694,	1687
73,	8273,	7932,	8194,	8547,	9004,	8686,	8703,	8474,	8389,	8359,	8873,	8908,	8513,	9019,	10.53,	9.48,	10.64,	0.03,	14.46,	8.80,	1.38,	8.68,	1.04,	10.89,	13.38,	4.01,	12.44,	3.44,	1695,	1686
74,	8263,	7928,	8181,	8534,	8981,	8669,	8675,	8464,	8379,	8353,	8843,	8897,	8504,	9016,	10.53,	9.48,	10.64,	0.03,	14.46,	8.80,	1.38,	8.68,	1.04,	10.89,	13.38,	4.01,	12.44,	3.44,	1693,	1688
75,	8259,	7916,	8174,	8534,	8965,	8661,	8640,	8457,	8377,	8349,	8835,	8896,	8496,	9013,	10.53,	9.48,	10.64,	0.03,	14.46,	8.80,	1.38,	8.68,	1.04,	10.89,	13.38,	4.03,	12.44,	3.44,	1693,	1688
76,	8269,	7914,	8186,	8548,	8980,	8676,	8643,	8455,	8382,	8335,	8855,	8901,	8484,	9013,	10.53,	9.48,	10.64,	0.03,	14.46,	8.80,	1.38,	8.68,	1.04,	10.89,	13.38,	4.03,	12.49,	3.44,	1693,	1687
77,	8278,	7924,	8194,	8562,	8997,	8688,	8674,	8458,	8386,	8323,	8862,	8902,	8484,	9021,	10.53,	9.48,	10.64,	0.03,	14.46,	8.80,	1.38,	8.68,	1.04,	10.89,	13.38,	4.03,	12.49,	3.47,	1693,	1686
78,	8281,	7934,	8194,	8562,	8997,	8683,	8688,	8464,	8384,	8336,	8851,	8905,	8510,	9023,	10.53,	9.48,	10.64,	0.03,	14.46,	8.80,	1.38,	8.68,	1.04,	10.89,	13.33,	4.03,	12.49,	3.47,	1691,	1686
79,	8281,	7931,	8196,	8559,	8998,	8679,	8674,	8471,	8384,	8354,	8843,	8908,	8512,	9021,	10.53,	9.48,	10.64,	0.03,	14.46,	8.80,	1.38,	8.68,	1.04,	10.89,	13.33,	4.06,	12.49,	3.47,	1693,	1686
80,	8267,	7920,	8181,	8552,	8993,	8675,	8658,	8468,	8380,	8338,	8828,	8890,	8474,	9013,	10.53,	9.48,	10.64,	0.03,	14.46,	8.80,	1.38,	8.68,	1.04,	10.89,	13.33,	4.06,	12.47,	3.47,	1693,	1686
81,	8240,	7902,	8153,	8525,	8967,	8664,	8649,	8454,	8364,	8299,	8801,	8866,	8454,	8994,	10.53,	9.48,	10.64,	0.03,	14.46,	8.80,	1.38,	8.68,	1.04,	10.89,	13.33,	4.06,	12.47,	3.45,	1693,	1688
82,	8234,	7895,	8147,	8511,	8954,	8667,	8641,	8449,	8361,	8285,	8806,	8873,	8465,	8988,	10.53,	9.48,	10.64,	0.03,	14.46,	8.80,	1.38,	8.68,	1.04,	10.89,	13.35,	4.06,	12.47,	3.45,	1695,	1688
83,	8247,	7905,	8164,	8525,	8971,	8677,	8649,	8458,	8373,	8312,	8840,	8889,	8477,	8999,	10.53,	9.48,	10.64,	0.03,	14.46,	8.80,	1.38,	8.68,	1.04,	10.89,	13.35,	4.04,	12.47,	3.45,	1694,	1690
84,	8254,	7905,	8171,	8528,	8977,	8673,	8658,	8469,	8381,	8342,	8860,	8890,	8490,	9009,	10.53,	9.48,	10.64,	0.03,	14.46,	8.80,	1.38,	8.68,	1.04,	10.89,	13.35,	4.04,	12.47,	3.45,	1697,	1689
85,	8256,	7901,	8171,	8516,	8965,	8672,	8648,	8469,	8387,	8348,	8859,	8891,	8502,	9014,	10.53,	9.48,	10.64,	0.03,	14.46,	8.80,	1.38,	8.68,	1.04,	10.89,	13.35,	4.04,	12.47,	3.44,	1697,	1688
86,	8267,	7914,	8183,	8530,	8980,	8682,	8651,	8470,	8390,	8353,	8865,	8904,	8512,	9024,	10.53,	9.48,	10.64,	0.03,	14.46,	8.80,	1.38,	8.68,	1.04,	10.89,	13.38,	4.04,	12.47,	3.44,	1699,	1686
87,	8277,	7925,	8198,	8546,	9010,	8688,	8684,	8477,	8385,	8363,	8882,	8913,	8517,	9031,	10.53,	9.48,	10.64,	0.03,	14.46,	8.80,	1.38,	8.68,	1.04,	10.89,	13.38,	4.03,	12.47,	3.44,	1699,	1686
88,	8293,	7933,	8207,	8550,	9023,	8701,	8720,	8483,	8394,	8384,	8901,	8918,	8527,	9043,	10.53,	9.48,	10.64,	0.03,	14.46,	8.80,	1.38,	8.68,	1.04,	10.89,	13.38,	4.03,	12.44,	3.44,	1701,	1686
89,	8297,	7942,	8208,	8563,	9027,	8710,	8727,	8480,	8403,	8401,	8904,	8913,	8540,	9039,	10.53,	9.48,	10.64,	0.03,	14.46,	8.80,	1.38,	8.68,	1.04,	10.89,	13.38,	4.03,	12.44,	3.48,	1701,	1685
90,	8275,	7934,	8196,	8563,	9014,	8691,	8699,	8470,	8383,	8366,	8875,	8898,	8529,	9017,	10.53,	9.48,	10.64,	0.03,	14.46,	8.80,	1.38,	8.68,	1.04,	10.89,	13.38,	4.03,	12.44,	3.48,	1702,	1686
91,	8269,	7924,	8188,	8545,	8995,	8677,	8673,	8467,	8369,	8323,	8845,	8901,	8497,	9020,	10.53,	9.48,	10.64,	0.03,	14.46,	8.80,	1.38,	8.68,	1.04,	10.89,	13.38,	4.04,	12.44,	3.48,	1702,	1686
92,	8269,	7916,	8180,	8537,	9000,	8683,	8683,	8462,	8385,	8348,	8853,	8893,	8495,	9017,	10.53,	9.48,	10.64,	0.03,	14.46,	8.80,	1.38,	8.68,	1.04,	10.89,	13.38,	4.04,	12.49,	3.48,	1704,	1686
93,	8266,	7913,	8182,	8536,	9015,	8693,	8700,	8469,	8399,	8375,	8872,	8893,	8510,	9016,	10.53,	9.48,	10.64,	0.03,	14.46,	8.80,	1.38,	8.68,	1.04,	10.89,	13.38,	4.04,	12.49,	3.44,	1706,	1685
94,	8269,	7922,	8187,	8531,	9012,	8701,	8704,	8474,	8392,	8353,	8867,	8902,	8503,	9025,	10.53,	9.48,	10.64,	0.03,	14.46,	8.80,	1.38,	8.68,	1.04,	10.89,	13.33,	4.04,	12.49,	3.44,	1706,	1687
95,	8256,	7916,	8178,	8525,	8997,	8691,	8707,	8469,	8386,	8344,	8860,	8887,	8490,	9009,	10.53,	9.48,	10.64,	0.03,	14.46,	8.80,	1.38,	8.68,	1.04,	10.89,	13.33,	4.07,	12.49,	3.44,	1708,	1685
96,	8261,	7913,	8189,	8530,	8987,	8685,	8709,	8480,	8387,	8358,	8865,	8901,	8495,	9018,	10.53,	9.48,	10.64,	0.03,	14.46,	8.80,	1.38,	8.68,	1.04,	10.89,	13.33,	4.07,	12.46,	3.44,	1707,	1685
97,	8270,	7908,	8188,	8535,	8994,	8687,	8712,	8482,	8389,	8365,	8864,	8901,	8511,	9020,	10.53,	9.48,	10.64,	0.03,	14.46,	8.80,	1.38,	8.68,	1.04,	10.89,	13.33,	4.07,	12.46,	3.44,	1709,	1686
98,	8270,	7911,	8181,	8540,	9006,	8691,	8717,	8478,	8393,	8369,	8860,	8892,	8522,	9016,	10.53,	9.48,	10.64,	0.03,	14.46,	8.80,	1.38,	8.68,	1.04,	10.89,	13.35,	4.07,	12.46,	3.44,	1709,	1686
99,	8281,	7934,	8200,	8551,	9014,	8704,	8721,	8484,	8397,	8371,	8875,	8913,	8517,	9035,	10.53,	9.48,	10.64,	0.03,	14.46,	8.80,	1.38,	8.68,	1.04,	10.89,	13.35,	4.04,	12.46,	3.44,	1708,	1688
100,	8275,	7929,	8196,	8549,	9014,	8700,	8723,	8474,	8395,	8370,	8886,	8905,	8501,	9026,	10.53,	9.48,	10.64,	0.03,	14.46,	8.80,	1.38,	8.68,	1.04,	10.89,	13.35,	4.04,	12.49,	3.44,	1708,	1689
101,	8264,	7900,	8182,	8523,	8989,	8681,	8701,	8467,	8390,	8359,	8850,	8894,	8497,	9017,	10.53,	9.48,	10.64,	0.03,	14.46,	8.80,	1.38,	8.68,	1.04,	10.89,	13.35,	4.04,	12.49,	3.45,	1708,	1690
102,	8265,	7905,	8190,	8524,	8987,	8680,	8695,	8476,	8392,	8362,	8846,	8900,	8514,	9021,	10.53,	9.48,	10.64,	0.03,	14.46,	8.80,	1.38,	8.68,	1.04,	10.89,	13.38,	4.04,	12.49,	3.45,	1707,	1691
103,	8278,	7929,	8202,	8549,	9009,	8697,	8713,	8479,	8397,	8373,	8890,	8908,	8517,	9026,	10.53,	9.48,	10.64,	0.03,	14.46,	8.80,	1.38,	8.68,	1.04,	10.89,	13.38,	4.04,	12.49,	3.45,	1705,	1692
104,	8275,	7916,	8191,	8529,	8991,	8687,	8694,	8470,	8393,	8356,	8886,	8907,	8494,	9026,	10.53,	9.48,	10.64,	0.03,	14.46,	8.80,	1.38,	8.68,	1.04,	10.89,	13.38,	4.04,	12.47,	3.45,	1703,	1692
105,	8253,	7887,	8175,	8500,	8973,	8670,	8671,	8469,	8394,	8359,	8868,	8896,	8489,	9017,	10.53,	9.48,	10.64,	0.03,	14.46,	8.80,	1.38,	8.68,	1.04,	10.89,	13.38,	4.04,	12.47,	3.48,	1703,	1694
106,	8259,	7895,	8186,	8511,	8986,	8684,	8683,	8477,	8397,	8381,	8875,	8902,	8506,	9026,	10.53,	9.48,	10.64,	0.03,	14.46,	8.80,	1.38,	8.68,	1.04,	10.89,	13.38,	4.04,	12.47,	3.48,	1701,	1694
107,	8269,	7911,	8195,	8529,	8986,	8683,	8673,	8466,	8390,	8356,	8861,	8903,	8505,	9023,	10.53,	9.48,	10.64,	0.03,	14.46,	8.80,	1.38,	8.68,	1.04,	10.89,	13.38,	4.04,	12.47,	3.48,	1702,	1695
108,	8269,	7915,	8197,	8540,	8977,	8671,	8650,	8463,	8388,	8333,	8851,	8905,	8499,	9019,	10.53,	9.48,	10.64,	0.03,	14.46,	8.80,	1.38,	8.68,	1.04,	10.89,	13.38,	4.04,	12.47,	3.48,	1700,	1695
109,	8279,	7919,	8207,	8550,	8983,	8688,	8664,	8479,	8391,	8357,	8870,	8913,	8511,	9033,	10.53,	9.48,	10.64,	0.03,	14.46,	8.80,	1.38,	8.68,	1.04,	10.89,	13.38,	4.04,	12.47,	3.44,	1700,	1695
110,	8278,	7914,	8204,	8549,	8982,	8690,	8670,	8476,	8385,	8364,	8866,	8904,	8507,	9023,	10.53,	9.48,	10.64,	0.03,	14.46,	8.80,	1.38,	8.68,	1.04,	10.89,	13.36,	4.04,	12.47,	3.44,	1698,	1695
111,	8279,	7904,	8203,	8550,	8990,	8681,	8663,	8468,	8387,	8351,	8851,	8900,	8487,	9016,	10.53,	9.48,	10.64,	0.03,	14.46,	8.80,	1.38,	8.68,	1.04,	10.89,	13.36,	4.07,	12.47,	3.44,	1698,	1696
112,	8292,	7910,	8210,	8557,	9008,	8690,	8678,	8470,	8396,	8356,	8860,	8910,	8493,	9031,	10.53,	9.48,	10.64,	0.03,	14.46,	8.80,	1.38,	8.68,	1.04,	10.89,	13.36,	4.07,	12.47,	3.44,	1697,	1694
113,	8279,	7921,	8201,	8538,	8998,	8690,	8688,	8471,	8392,	8349,	8856,	8907,	8505,	9027,	10.53,	9.48,	10.64,	0.03,	14.46,	8.80,	1.38,	8.68,	1.04,	10.89,	13.36,	4.07,	12.47,	3.44,	1695,	1695
114,	8260,	7916,	8188,	8517,	8986,	8683,	8690,	8472,	8390,	8338,	8842,	8895,	8494,	9014,	10.53,	9.48,	10.64,	0.03,	14.46,	8.80,	1.38,	8.68,	1.04,	10.89,	13.36,	4.07,	12.47,	3.44,	1695,	1693
115,	8271,	7902,	8199,	8525,	8990,	8691,	8696,	8473,	8394,	8346,	8841,	8898,	8480,	9018,	10.53,	9.48,	10.64,	0.03,	14.46,	8.80,	1.38,	8.68,	1.04,	10.89,	13.36,	4.03,	12.47,	3.44,	1693,	1692
116,	8276,	7905,	8209,	8534,	8989,	8689,	8696,	8473,	8389,	8350,	8835,	8903,	8482,	9021,	10.53,	9.48,	10.64,	0.03,	14.46,	8.80,	1.38,	8.68,	1.04,	10.89,	13.36,	4.03,	12.44,	3.44,	1694,	1690
117,	8273,	7921,	8211,	8540,	8993,	8680,	8689,	8479,	8388,	8351,	8838,	8913,	8498,	9025,	10.53,	9.48,	10.64,	0.03,	14.46,	8.80,	1.38,	8.68,	1.04,	10.89,	13.36,	4.03,	12.44,	3.45,	1693,	1688
118,	8279,	7917,	8214,	8546,	9002,	8686,	8689,	8478,	8391,	8353,	8849,	8919,	8508,	9031,	10.53,	9.48,	10.64,	0.03,	14.46,	8.80,	1.38,	8.68,	1.04,	10.89,	13.35,	4.03,	12.44,	3.45,	1692,	1689
119,	8267,	7897,	8197,	8525,	8985,	8682,	8681,	8461,	8384,	8343,	8833,	8897,	8485,	9014,	10.53,	9.48,	10.64,	0.03,	14.46,	8.80,	1.38,	8.68,	1.04,	10.89,	13.35,	4.04,	12.44,	3.45,	1692,	1688
120,	8235,	7885,	8170,	8489,	8948,	8660,	8657,	8456,	8379,	8316,	8805,	8879,	8441,	8991,	10.53,	9.48,	10.64,	0.03,	14.46,	8.80,	1.38,	8.68,	1.04,	10.89,	13.35,	4.04,	12.46,	3.45,	1692,	1688
121,	8225,	7886,	8168,	8486,	8950,	8660,	8646,	8467,	8385,	8305,	8808,	8883,	8434,	8988,	10.53,	9.48,	10.64,	0.03,	14.46,	8.80,	1.38,	8.68,	1.04,	10.89,	13.35,	4.04,	12.46,	3.47,	1692,	1686
122,	8260,	7902,	8193,	8523,	8993,	8688,	8676,	8481,	8400,	8340,	8833,	8902,	8474,	9014,	10.53,	9.48,	10.64,	0.03,	14.46,	8.80,	1.38,	8.68,	1.04,	10.89,	13.33,	4.04,	12.46,	3.47,	1692,	1686
123,	8294,	7918,	8217,	8540,	9010,	8694,	8700,	8490,	8403,	8371,	8849,	8918,	8501,	9035,	10.53,	9.48,	10.64,	0.03,	14.46,	8.80,	1.38,	8.68,	1.04,	10.89,	13.33,	4.03,	12.46,	3.47,	1693,	1683
124,	8279,	7914,	8213,	8521,	8987,	8669,	8676,	8475,	8388,	8357,	8850,	8906,	8491,	9018,	10.53,	9.48,	10.64,	0.03,	14.46,	8.80,	1.38,	8.68,	1.04,	10.89,	13.33,	4.03,	12.44,	3.47,	1693,	1684
125,	8257,	7903,	8203,	8513,	8974,	8672,	8663,	8461,	8383,	8337,	8840,	8898,	8481,	9009,	10.53,	9.48,	10.64,	0.03,	14.46,	8.80,	1.38,	8.68,	1.04,	10.89,	13.33,	4.03,	12.44,	3.48,	1696,	1683
126,	8264,	7896,	8204,	8515,	8987,	8692,	8684,	8464,	8392,	8335,	8832,	8903,	8482,	9015,	10.53,	9.48,	10.64,	0.03,	14.46,	8.80,	1.38,	8.68,	1.04,	10.89,	13.33,	4.03,	12.44,	3.48,	1695,	1683
127,	8276,	7904,	8215,	8510,	8995,	8690,	8690,	8473,	8392,	8338,	8836,	8900,	8478,	9012,	10.53,	9.48,	10.64,	0.03,	14.46,	8.80,	1.38,	8.68,	1.04,	10.89,	13.33,	4.06,	12.44,	3.48,	1697,	1685
0,	8279,	7940,	8241,	8557,	9000,	8693,	8693,	8478,	8406,	8371,	8883,	8926,	8523,	9033,	10.39,	9.48,	10.64,	0.03,	14.46,	8.80,	1.38,	8.68,	1.04,	10.89,	13.33,	4.06,	12.44,	3.48,	1698,	1687
1,	8281,	7922,	8233,	8541,	8999,	8687,	8699,	8476,	8399,	8379,	8870,	8919,	8513,	9028,	10.39,	9.53,	10.64,	0.03,	14.46,	8.80,	1.38,	8.68,	1.04,	10.89,	13.33,	4.06,	12.44,	3.48,	1699,	1686
2,	8283,	7931,	8232,	8529,	9011,	8695,	8698,	8479,	8390,	8377,	8856,	8913,	8494,	9028,	10.39,	9.53,	10.64,	0.03,	14.46,	8.80,	1.38,	8.68,	1.04,	10.89,	13.33,	4.06,	12.44,	3.48,	1699,	1687
3,	8274,	7938,	8235,	8546,	9023,	8710,	8701,	8482,	8396,	8366,	8870,	8915,	8498,	9030,	10.39,	9.53,	10.64,	15.13,	14.46,	8.80,	1.38,	8.68,	1.04,	10.89,	13.33,	4.06,	12.44,	3.48,	1700,	1688
4,	8273,	7916,	8231,	8543,	9013,	8701,	8692,	8482,	8394,	8359,	8872,	8912,	8502,	9028,	10.39,	9.53,	10.64,	15.13,	14.46,	8.80,	1.38,	8.68,	1.04,	10.89,	13.33,	4.06,	12.44,	3.48,	1700,	1691
5,	8279,	7907,	8230,	8533,	8999,	8686,	8672,	8476,	8388,	8361,	8852,	8906,	8496,	9029,	10.39,	9.53,	10.64,	15.13,	14.46,	8.77,	1.38,	8.68,	1.04,	10.89,	13.33,	4.06,	12.44,	3.48,	1700,	1691
6,	8272,	7916,	8229,	8538,	8998,	8688,	8669,	8474,	8393,	8360,	8851,	8904,	8486,	9029,	10.39,	9.53,	10.64,	15.13,	14.46,	8.77,	1.38,	8.68,	1.04,	10.89,	13.33,	4.06,	12.44,	3.48,	1698,	1693
7,	8271,	7913,	8229,	8534,	9001,	8693,	8690,	8486,	8398,	8366,	8862,	8904,	8473,	9022,	10.39,	9.53,	10.64,	15.13,	14.46,	8.77,	1.38,	8.68,	1.04,	10.89,	13.33,	4.06,	12.44,	3.48,	1699,	1694
8,	8270,	7903,	8226,	8520,	8991,	8684,	8695,	8491,	8393,	8362,	8846,	8899,	8469,	9016,	10.39,	9.53,	10.64,	15.13,	14.46,	8.77,	1.38,	8.68,	1.05,	10.89,	13.33,	4.06,	12.44,	3.48,	1697,	1693
9,	8252,	7901,	8216,	8512,	8977,	8680,	8668,	8470,	8384,	8333,	8821,	8891,	8474,	9013,	10.39,	9.53,	10.64,	15.13,	14.46,	8.77,	1.38,	8.68,	1.05,	10.84,	13.33,	4.06,	12.44,	3.48,	1697,	1695
10,	8242,	7900,	8207,	8513,	8979,	8685,	8658,	8465,	8384,	8325,	8819,	8887,	8466,	9008,	10.39,	9.53,	10.64,	15.13,	14.46,	8.77,	1.38,	8.68,	1.05,	10.84,	13.36,	4.06,	12.44,	3.48,	1696,	1693
11,	8254,	7899,	8213,	8512,	8990,	8688,	8685,	8484,	8395,	8356,	8842,	8899,	8453,	9013,	10.39,	9.53,	10.64,	15.13,	14.46,	8.77,	1.38,	8.68,	1.05,	10.84,	13.36,	3.93,	12.44,	3.48,	1695,	1694
12,	8260,	7898,	8222,	8506,	8991,	8693,	8694,	8489,	8404,	8372,	8855,	8908,	8471,	9026,	10.39,	9.53,	10.64,	15.13,	14.46,	8.77,	1.38,	8.68,	1.05,	10.84,	13.36,	3.93,	12.47,	3.48,	1695,	1692
13,	8256,	7899,	8218,	8505,	8983,	8690,	8677,	8477,	8401,	8362,	8845,	8898,	8497,	9025,	10.39,	9.53,	10.64,	15.13,	14.46,	8.77,	1.38,	8.68,	1.05,	10.84,	13.36,	3.93,	12.47,	3.51,	1694,	1693
14,	8265,	7913,	8221,	8517,	8982,	8685,	8674,	8479,	8389,	8355,	8836,	8898,	8488,	9018,	10.39,	9.53,	10.64,	15.13,	14.46,	8.77,	1.38,	8.68,	1.05,	10.84,	13.36,	3.93,	12.47,	3.51,	1693,	1692
15,	8271,	7925,	8233,	8534,	8986,	8681,	8675,	8476,	8380,	8355,	8843,	8907,	8476,	9020,	10.39,	9.53,	10.64,	15.13,	14.46,	8.77,	1.38,	8.68,	1.05,	10.84,	13.36,	3.96,	12.47,	3.51,	1693,	1693
16,	8265,	7914,	8234,	8532,	8982,	8676,	8659,	8464,	8382,	8352,	8844,	8904,	8480,	9023,	10.39,	9.53,	10.64,	15.13,	14.46,	8.77,	1.38,	8.68,	1.05,	10.84,	13.36,	3.96,	12.47,	3.51,	1693,	1691
17,	8266,	7906,	8230,	8523,	8982,	8679,	8650,	8467,	8387,	8347,	8837,	8900,	8479,	9024,	10.39,	9.53,	10.64,	15.13,	14.46,	8.77,	1.38,	8.68,	1.05,	10.84,	13.36,	3.96,	12.47,	3.51,	1692,	1692
18,	8273,	7916,	8234,	8535,	9002,	8692,	8675,	8474,	8389,	8351,	8845,	8902,	8472,	9023,	10.39,	9.53,	10.64,	15.13,	14.46,	8.77,	1.38,	8.68,	1.05,	10.84,	13.36,	3.96,	12.47,	3.51,	1692,	1690
19,	8267,	7921,	8235,	8545,	9005,	8696,	8691,	8474,	8391,	8351,	8847,	8897,	8470,	9020,	10.39,	9.53,	10.64,	15.13,	14.46,	8.77,	1.38,	8.68,	1.05,	10.84,	13.36,	3.96,	12.47,	3.51,	1692,	1688
20,	8255,	7911,	8223,	8532,	8987,	8686,	8671,	8476,	8392,	8348,	8829,	8893,	8475,	9015,	10.39,	9.53,	10.64,	15.13,	14.46,	8.77,	1.38,	8.68,	1.05,	10.84,	13.36,	3.96,	12.47,	3.51,	1693,	1687
21,	8256,	7904,	8222,	8528,	8988,	8683,	8660,	8482,	8390,	8360,	8830,	8903,	8491,	9016,	10.39,	9.53,	10.64,	15.13,	14.46,	8.77,	1.38,	8.68,	1.05,	10.84,	13.36,	3.96,	12.47,	3.51,	1693,	1686
22,	8267,	7907,	8235,	8540,	8997,	8686,	8670,	8485,	8389,	8376,	8856,	8911,	8496,	9019,	10.39,	9.53,	10.64,	15.13,	14.46,	8.77,	1.38,	8.68,	1.05,	10.84,	13.36,	3.96,	12.47,	3.51,	1693,	1687
23,	8271,	7909,	8233,	8538,	8993,	8688,	8674,	8482,	8392,	8373,	8854,	8901,	8479,	9020,	10.39,	9.53,	10.64,	15.13,	14.46,	8.77,	1.38,	8.68,	1.05,	10.84,	13.36,	3.96,	12.47,	3.51,	1696,	1686
24,	8268,	7909,	8221,	8524,	8994,	8691,	8671,	8477,	8392,	8365,	8830,	8894,	8475,	9019,	10.39,	9.53,	10.64,	15.13,	14.46,	8.77,	1.38,	8.68,	1.05,	10.84,	13.36,	3.96,	12.47,	3.51,	1696,	1688
25,	8256,	7904,	8211,	8515,	8990,	8688,	8663,	8467,	8378,	8343,	8829,	8894,	8472,	9009,	10.39,	9.53,	10.64,	15.13,	14.46,	8.77,	1.38,	8.68,	1.05,	10.84,	13.36,	3.96,	12.47,	3.51,	1697,	1689
26,	8227,	7884,	8192,	8493,	8967,	8676,	8641,	8456,	8362,	8295,	8821,	8878,	8441,	8986,	10.39,	9.53,	10.64,	15.13,	14.46,	8.77,	1.38,	8.68,	1.05,	10.84,	13.36,	3.96,	12.47,	3.51,	1699,	1690
27,	8220,	7879,	8184,	8475,	8958,	8674,	8641,	8464,	8370,	8288,	8804,	8869,	8434,	8985,	10.39,	9.53,	10.64,	15.13,	14.46,	8.77,	1.38,	8.68,	1.05,	10.84,	13.36,	3.96,	12.47,	3.51,	1700,	1690
28,	8245,	7898,	8209,	8490,	8978,	8688,	8680,	8486,	8396,	8337,	8844,	8890,	8464,	9011,	10.39,	9.53,	10.64,	15.13,	14.46,	8.77,	1.38,	8.68,	1.05,	10.84,	13.36,	3.96,	12.47,	3.51,	1701,	1690
29,	8271,	7923,	8243,	8528,	9012,	8709,	8721,	8495,	8412,	8383,	8908,	8917,	8500,	9031,	10.39,	9.53,	10.64,	15.13,	14.46,	8.77,	1.38,	8.68,	1.05,	10.84,	13.36,	3.96,	12.47,	3.51,	1701,	1690
30,	8297,	7950,	8265,	8562,	9039,	8718,	8738,	8493,	8411,	8417,	8927,	8933,	8536,	9044,	10.39,	9.53,	10.64,	15.13,	14.46,	8.77,	1.38,	8.68,	1.05,	10.84,	13.36,	3.96,	12.47,	3.51,	1702,	1692
31,	8309,	7955,	8271,	8566,	9042,	8703,	8726,	8492,	8406,	8437,	8925,	8940,	8558,	9057,	10.39,	9.53,	10.64,	15.13,	14.46,	8.77,	1.38,	8.68,	1.05,	10.84,	13.36,	3.96,	12.47,	3.51,	1704,	1692
32,	8291,	7932,	8256,	8551,	9030,	8694,	8709,	8485,	8398,	8417,	8918,	8933,	8544,	9050,	10.39,	9.53,	10.64,	15.13,	14.46,	8.77,	1.38,	8.68,	1.05,	10.84,	13.36,	3.96,	12.47,	3.51,	1704,	1692
33,	8282,	7918,	8241,	8538,	9022,	8702,	8706,	8479,	8392,	8393,	8900,	8920,	8519,	9032,	10.39,	9.53,	10.64,	15.13,	14.46,	8.77,	1.38,	8.68,	1.05,	10.84,	13.36,	3.96,	12.47,	3.51,	1703,	1690
34,	8289,	7923,	8240,	8536,	9020,	8703,	8713,	8486,	8397,	8402,	8891,	8916,	8512,	9026,	10.39,	9.53,	10.64,	15.13,	14.46,	8.77,	1.38,	8.68,	1.05,	10.84,	13.36,	3.96,	12.47,	3.51,	1703,	1689
35,	8281,	7920,	8235,	8532,	9013,	8698,	8724,	8488,	8400,	8403,	8882,	8908,	8507,	9030,	10.39,	9.53,	10.64,	15.13,	14.46,	8.77,	1.38,	8.68,	1.05,	10.84,	13.36,	3.96,	12.47,	3.51,	1704,	1687
36,	8273,	7915,	8228,	8524,	9003,	8692,	8709,	8481,	8392,	8383,	8871,	8907,	8502,	9028,	10.39,	9.53,	10.64,	15.13,	14.46,	8.77,	1.38,	8.68,	1.05,	10.84,	13.36,	3.96,	12.47,	3.51,	1702,	1688
37,	8268,	7916,	8224,	8520,	9002,	8682,	8683,	8481,	8387,	8380,	8876,	8908,	8502,	9021,	10.39,	9.53,	10.64,	15.13,	14.46,	8.77,	1.38,	8.68,	1.05,	10.84,	13.36,	3.96,	12.47,	3.51,	1703,	1687
38,	8271,	7922,	8232,	8528,	9018,	8697,	8701,	8490,	8398,	8407,	8895,	8911,	8513,	9033,	10.39,	9.53,	10.64,	15.13,	14.46,	8.77,	1.38,	8.68,	1.05,	10.84,	13.36,	3.96,	12.47,	3.51,	1701,	1687
39,	8286,	7927,	8243,	8540,	9022,	8712,	8730,	8492,	8400,	8424,	8900,	8917,	8522,	9046,	10.39,	9.53,	10.64,	15.13,	14.46,	8.77,	1.38,	8.68,	1.05,	10.84,	13.36,	3.96,	12.47,	3.51,	1702,	1687
40,	8278,	7916,	8230,	8530,	8997,	8684,	8701,	8481,	8386,	8391,	8887,	8909,	8511,	9032,	10.39,	9.53,	10.64,	15.13,	14.46,	8.77,	1.38,	8.68,	1.05,	10.84,	13.36,	3.96,	12.47,	3.51,	1702,	1684
41,	8268,	7913,	8220,	8523,	8990,	8670,	8670,	8474,	8385,	8358,	8887,	8908,	8502,	9025,	10.39,	9.53,	10.64,	15.13,	14.46,	8.77,	1.38,	8.68,	1.05,	10.84,	13.36,	3.96,	12.47,	3.51,	1700,	1684
42,	8270,	7921,	8226,	8537,	9003,	8687,	8680,	8482,	8391,	8374,	8881,	8913,	8507,	9030,	10.39,	9.53,	10.64,	15.13,	14.46,	8.77,	1.38,	8.68,	1.05,	10.84,	13.36,	3.96,	12.47,	3.51,	1700,	1684
43,	8263,	7915,	8223,	8531,	8994,	8682,	8675,	8486,	8383,	8387,	8861,	8912,	8501,	9026,	10.39,	9.53,	10.64,	15.13,	14.46,	8.77,	1.38,	8.68,	1.05,	10.84,	13.36,	3.96,	12.47,	3.51,	1700,	1684
44,	8261,	7906,	8217,	8511,	8979,	8669,	8650,	8473,	8375,	8364,	8859,	8912,	8485,	9021,	10.39,	9.53,	10.64,	15.13,	14.46,	8.77,	1.38,	8.68,	1.05,	10.84,	13.36,	3.96,	12.47,	3.51,	1698,	1685
45,	8275,	7910,	8217,	8515,	8984,	8682,	8648,	8467,	8383,	8355,	8870,	8910,	8485,	9023,	10.39,	9.53,	10.64,	15.13,	14.46,	8.77,	1.38,	8.68,	1.05,	10.84,	13.36,	3.96,	12.47,	3.51,	1697,	1685
46,	8281,	7911,	8215,	8525,	8994,	8696,	8675,	8478,	8396,	8369,	8869,	8910,	8499,	9024,	10.39,	9.53,	10.64,	15.13,	14.46,	8.77,	1.38,	8.68,	1.05,	10.84,	13.36,	3.96,	12.47,	3.51,	1697,	1685
47,	8269,	7910,	8211,	8531,	8996,	8683,	8688,	8482,	8396,	8370,	8866,	8911,	8512,	9020,	10.39,	9.53,	10.64,	15.13,	14.46,	8.77,	1.38,	8.68,	1.05,	10.84,	13.36,	3.96,	12.47,	3.51,	1696,	1685
48,	8263,	7919,	8213,	8546,	8997,	8672,	8670,	8472,	8379,	8359,	8864,	8906,	8501,	9019,	10.39,	9.53,	10.64,	15.13,	14.46,	8.77,	1.38,	8.68,	1.05,	10.84,	13.36,	3.96,	12.47,	3.51,	1696,	1685
49,	8266,	7920,	8213,	8557,	8997,	8679,	8657,	8471,	8372,	8347,	8861,	8901,	8475,	9020,	10.39,	9.53,	10.64,	15.13,	14.46,	8.77,	1.38,	8.68,	1.05,	10.84,	13.36,	3.96,	12.47,	3.51,	1694,	1684
50,	8270,	7912,	8215,	8558,	9001,	8684,	8664,	8481,	8387,	8347,	8864,	8906,	8472,	9023,	10.39,	9.53,	10.64,	15.13,	14.46,	8.77,	1.38,	8.68,	1.05,	10.84,	13.36,	3.96,	12.47,	3.51,	1694,	1684
51,	8260,	7913,	8205,	8552,	8998,	8677,	8660,	8477,	8387,	8352,	8852,	8904,	8490,	9018,	10.39,	9.53,	10.64,	15.13,	14.46,	8.77,	1.38,	8.68,	1.05,	10.84,	13.36,	3.96,	12.47,	3.51,	1695,	1683
52,	8244,	7901,	8183,	8525,	8976,	8666,	8639,	8468,	8372,	8329,	8827,	8888,	8481,	9008,	10.39,	9.53,	10.64,	15.13,	14.46,	8.77,	1.38,	8.68,	1.05,	10.84,	13.36,	3.96,	12.47,	3.51,	1693,	1684
53,	8239,	7886,	8177,	8499,	8964,	8664,	8624,	8473,	8374,	8299,	8824,	8878,	8448,	8999,	10.39,	9.53,	10.64,	15.13,	14.46,	8.77,	1.38,	8.68,	1.05,	10.84,	13.36,	3.96,	12.47,	3.51,	1695,	1684
54,	8230,	7888,	8177,	8501,	8974,	8665,	8620,	8477,	8381,	8302,	8827,	8871,	8444,	8989,	10.39,	9.53,	10.64,	15.13,	14.46,	8.77,	1.38,	8.68,	1.05,	10.84,	13.36,	3.96,	12.47,	3.51,	1692,	1685
55,	8237,	7898,	8177,	8514,	8970,	8671,	8623,	8479,	8380,	8306,	8804,	8890,	8452,	9009,	10.39,	9.53,	10.64,	15.13,	14.46,	8.77,	1.38,	8.68,	1.05,	10.84,	13.36,	3.96,	12.47,	3.51,	1694,	1685
56,	8246,	7892,	8176,	8523,	8954,	8668,	8627,	8474,	8385,	8297,	8796,	8892,	8447,	9012,	10.39,	9.53,	10.64,	15.13,	14.46,	8.77,	1.38,	8.68,	1.05,	10.84,	13.36,	3.96,	12.47,	3.51,	1693,	1683
57,	8231,	7881,	8170,	8525,	8959,	8659,	8637,	8465,	8387,	8310,	8822,	8863,	8445,	8982,	10.39,	9.53,	10.64,	15.13,	14.46,	8.77,	1.38,	8.68,	1.05,	10.84,	13.36,	3.96,	12.47,	3.51,	1693,	1683
58,	8240,	7883,	8175,	8508,	8957,	8659,	8637,	8475,	8381,	8315,	8815,	8876,	8442,	8997,	10.39,	9.53,	10.64,	15.13,	14.46,	8.77,	1.38,	8.68,	1.05,	10.84,	13.36,	3.96,	12.47,	3.51,	1693,	1683
59,	8237,	7883,	8166,	8487,	8945,	8652,	8626,	8474,	8377,	8301,	8784,	8881,	8439,	9000,	10.39,	9.53,	10.64,	15.13,	14.46,	8.77,	1.38,	8.68,	1.05,	10.84,	13.36,	3.96,	12.47,	3.51,	1694,	1684
60,	8220,	7880,	8158,	8491,	8950,	8656,	8622,	8464,	8376,	8293,	8790,	8868,	8445,	8985,	10.39,	9.53,	10.64,	15.13,	14.46,	8.77,	1.38,	8.68,	1.05,	10.84,	13.36,	3.96,	12.47,	3.51,	1694,	1683
61,	8231,	7878,	8163,	8497,	8952,	8663,	8621,	8470,	8379,	8288,	8804,	8879,	8447,	8998,	10.39,	9.53,	10.64,	15.13,	14.46,	8.77,	1.38,	8.68,	1.05,	10.84,	13.36,	3.96,	12.47,	3.51,	1694,	1685
62,	8228,	7871,	8155,	8489,	8939,	8651,	8622,	8475,	8383,	8299,	8802,	8877,	8434,	8993,	10.39,	9.53,	10.64,	15.13,	14.46,	8.77,	1.38,	8.68,	1.05,	10.84,	13.36,	3.96,	12.47,	3.51,	1695,	1684
63,	8230,	7888,	8172,	8496,	8945,	8661,	8640,	8480,	8391,	8325,	8815,	8882,	8446,	8997,	10.39,	9.53,	10.64,	15.13,	14.46,	8.77,	1.38,	8.68,	1.05,	10.84,	13.36,	3.96,	12.47,	3.51,	1693,	1685
64,	8259,	7912,	8199,	8524,	8974,	8681,	8660,	8487,	8400,	8337,	8838,	8901,	8482,	9023,	10.43,	9.53,	10.64,	15.13,	14.46,	8.77,	1.38,	8.68,	1.05,	10.84,	13.36,	3.96,	12.47,	3.51,	1694,	1684
65,	8270,	7911,	8194,	8535,	8981,	8676,	8656,	8485,	8403,	8328,	8844,	8909,	8489,	9030,	10.43,	9.60,	10.64,	15.13,	14.46,	8.77,	1.38,	8.68,	1.05,	10.84,	13.36,	3.96,	12.47,	3.51,	1694,	1684
66,	8261,	7903,	8188,	8525,	8963,	8671,	8639,	8482,	8399,	8321,	8836,	8902,	8472,	9027,	10.43,	9.60,	10.89,	15.13,	14.46,	8.77,	1.38,	8.68,	1.05,	10.84,	13.36,	3.96,	12.47,	3.51,	1694,	1684
67,	8258,	7895,	8195,	8519,	8961,	8679,	8643,	8482,	8389,	8325,	8836,	8894,	8478,	9027,	10.43,	9.60,	10.89,	15.16,	14.46,	8.77,	1.38,	8.68,	1.05,	10.84,	13.36,	3.96,	12.47,	3.51,	1693,	1682
68,	8268,	7895,	8197,	8526,	8975,	8679,	8662,	8482,	8385,	8334,	8841,	8904,	8489,	9031,	10.43,	9.60,	10.89,	15.16,	14.49,	8.77,	1.38,	8.68,	1.05,	10.84,	13.36,	3.96,	12.47,	3.51,	1694,	1684
69,	8267,	7902,	8190,	8529,	8977,	8673,	8647,	8481,	8390,	8342,	8839,	8905,	8469,	9026,	10.43,	9.60,	10.89,	15.16,	14.49,	8.76,	1.38,	8.68,	1.05,	10.84,	13.36,	3.96,	12.47,	3.51,	1694,	1682
70,	8255,	7896,	8183,	8515,	8965,	8667,	8616,	8478,	8388,	8332,	8831,	8890,	8454,	9018,	10.43,	9.60,	10.89,	15.16,	14.49,	8.76,	1.36,	8.68,	1.05,	10.84,	13.36,	3.96,	12.47,	3.51,	1694,	1683
71,	8256,	7895,	8184,	8510,	8964,	8680,	8634,	8474,	8384,	8322,	8820,	8892,	8475,	9021,	10.43,	9.60,	10.89,	15.16,	14.49,	8.76,	1.36,	8.86,	1.05,	10.84,	13.36,	3.96,	12.47,	3.51,	1694,	1682
72,	8272,	7901,	8193,	8522,	8976,	8694,	8668,	8482,	8391,	8331,	8819,	8903,	8488,	9027,	10.43,	9.60,	10.89,	15.16,	14.49,	8.76,	1.36,	8.86,	1.01,	10.84,	13.36,	3.96,	12.47,	3.51,	1695,	1682
73,	8271,	7895,	8194,	8514,	8966,	8675,	8644,	8485,	8395,	8335,	8828,	8898,	8467,	9022,	10.43,	9.60,	10.89,	15.16,	14.49,	8.76,	1.36,	8.86,	1.01,	10.84,	13.36,	3.96,	12.47,	3.51,	1695,	1680
74,	8253,	7886,	8184,	8502,	8947,	8654,	8607,	8478,	8387,	8327,	8837,	8886,	8456,	9012,	10.43,	9.60,	10.89,	15.16,	14.49,	8.76,	1.36,	8.86,	1.01,	10.84,	13.38,	3.96,	12.47,	3.51,	1695,	1681
75,	8257,	7900,	8191,	8524,	8961,	8675,	8636,	8483,	8391,	8332,	8839,	8891,	8483,	9016,	10.43,	9.60,	10.89,	15.16,	14.49,	8.76,	1.36,	8.86,	1.01,	10.84,	13.38,	3.97,	12.47,	3.51,	1696,	1679
76,	8268,	7903,	8199,	8530,	8981,	8693,	8671,	8486,	8397,	8330,	8834,	8901,	8491,	9023,	10.43,	9.60,	10.89,	15.16,	14.49,	8.76,	1.36,	8.86,	1.01,	10.84,	13.38,	3.97,	12.49,	3.51,	1695,	1679
77,	8262,	7886,	8186,	8502,	8974,	8681,	8646,	8472,	8385,	8312,	8820,	8893,	8466,	9011,	10.43,	9.60,	10.89,	15.16,	14.49,	8.76,	1.36,	8.86,	1.01,	10.84,	13.38,	3.97,	12.49,	3.47,	1696,	1680
78,	8253,	7891,	8187,	8504,	8960,	8670,	8615,	8467,	8382,	8310,	8823,	8889,	8454,	8999,	10.43,	9.60,	10.89,	15.16,	14.49,	8.76,	1.36,	8.86,	1.01,	10.84,	13.38,	3.97,	12.49,	3.47,	1696,	1680
79,	8262,	7909,	8211,	8543,	8964,	8674,	8627,	8474,	8397,	8330,	8854,	8905,	8471,	9010,	10.43,	9.60,	10.89,	15.16,	14.49,	8.76,	1.36,	8.86,	1.01,	10.84,	13.38,	4.01,	12.49,	3.47,	1696,	1682
80,	8273,	7904,	8223,	8554,	8973,	8669,	8642,	8471,	8397,	8337,	8861,	8918,	8492,	9025,	10.43,	9.60,	10.89,	15.16,	14.49,	8.76,	1.36,	8.86,	1.01,	10.84,	13.38,	4.01,	12.47,	3.47,	1696,	1681
81,	8271,	7899,	8222,	8544,	8969,	8665,	8627,	8464,	8385,	8327,	8841,	8914,	8495,	9023,	10.43,	9.60,	10.89,	15.16,	14.49,	8.76,	1.36,	8.86,	1.01,	10.84,	13.38,	4.01,	12.47,	3.48,	1696,	1682
82,	8268,	7914,	8225,	8560,	8975,	8678,	8626,	8473,	8390,	8339,	8843,	8911,	8486,	9016,	10.43,	9.60,	10.89,	15.16,	14.49,	8.76,	1.36,	8.86,	1.01,	10.84,	13.36,	4.01,	12.47,	3.48,	1696,	1683
83,	8272,	7921,	8223,	8574,	9002,	8694,	8652,	8484,	8397,	8360,	8859,	8912,	8486,	9021,	10.43,	9.60,	10.89,	15.16,	14.49,	8.76,	1.36,	8.86,	1.01,	10.84,	13.36,	3.97,	12.47,	3.48,	1695,	1685
84,	8277,	7914,	8218,	8559,	9014,	8695,	8666,	8488,	8393,	8353,	8870,	8916,	8496,	9028,	10.43,	9.60,	10.89,	15.16,	14.49,	8.76,	1.36,	8.86,	1.01,	10.84,	13.36,	3.97,	12.47,	3.48,	1697,	1684
85,	8279,	7917,	8225,	8558,	9004,	8691,	8666,	8491,	8394,	8355,	8876,	8922,	8508,	9033,	10.43,	9.60,	10.89,	15.16,	14.49,	8.76,	1.36,	8.86,	1.01,	10.84,	13.36,	3.97,	12.47,	3.47,	1696,	1688
86,	8277,	7918,	8232,	8573,	9004,	8690,	8673,	8490,	8390,	8366,	8865,	8919,	8513,	9033,	10.43,	9.60,	10.89,	15.16,	14.49,	8.76,	1.36,	8.86,	1.01,	10.84,	13.35,	3.97,	12.47,	3.47,	1697,	1688
87,	8270,	7909,	8222,	8559,	9002,	8681,	8668,	8479,	8385,	8336,	8845,	8905,	8495,	9019,	10.43,	9.60,	10.89,	15.16,	14.49,	8.76,	1.36,	8.86,	1.01,	10.84,	13.35,	3.97,	12.47,	3.47,	1697,	1690
88,	8264,	7904,	8203,	8540,	8986,	8674,	8651,	8474,	8394,	8311,	8843,	8896,	8469,	9010,	10.43,	9.60,	10.89,	15.16,	14.49,	8.76,	1.36,	8.86,	1.01,	10.84,	13.35,	3.97,	12.49,	3.47,	1698,	1689
89,	8267,	7899,	8199,	8549,	8984,	8677,	8656,	8480,	8401,	8334,	8844,	8902,	8467,	9020,	10.43,	9.60,	10.89,	15.16,	14.49,	8.76,	1.36,	8.86,	1.01,	10.84,	13.35,	3.97,	12.49,	3.44,	1698,	1690
90,	8271,	7890,	8209,	8552,	8989,	8681,	8670,	8481,	8392,	8339,	8833,	8907,	8479,	9026,	10.43,	9.60,	10.89,	15.16,	14.49,	8.76,	1.36,	8.86,	1.01,	10.84,	13.36,	3.97,	12.49,	3.44,	1699,	1689
91,	8265,	7890,	8210,	8537,	8973,	8677,	8661,	8477,	8381,	8320,	8830,	8903,	8483,	9019,	10.43,	9.60,	10.89,	15.16,	14.49,	8.76,	1.36,	8.86,	1.01,	10.84,	13.36,	3.99,	12.49,	3.44,	1700,	1690
92,	8260,	7898,	8203,	8536,	8963,	8673,	8654,	8484,	8390,	8329,	8848,	8901,	8476,	9022,	10.43,	9.60,	10.89,	15.16,	14.49,	8.76,	1.36,	8.86,	1.01,	10.84,	13.36,	3.99,	12.47,	3.44,	1700,	1689
93,	8277,	7913,	8213,	8558,	8990,	8684,	8678,	8498,	8407,	8353,	8868,	8911,	8482,	9035,	10.43,	9.60,	10.89,	15.16,	14.49,	8.76,	1.36,	8.86,	1.01,	10.84,	13.36,	3.99,	12.47,	3.47,	1699,	1689
94,	8297,	7931,	8228,	8579,	9020,	8699,	8701,	8503,	8404,	8358,	8870,	8920,	8502,	9045,	10.43,	9.60,	10.89,	15.16,	14.49,	8.76,	1.36,	8.86,	1.01,	10.84,	13.35,	3.99,	12.47,	3.47,	1702,	1689
95,	8279,	7915,	8211,	8562,	9006,	8691,	8689,	8493,	8389,	8344,	8849,	8907,	8497,	9033,	10.43,	9.60,	10.89,	15.16,	14.49,	8.76,	1.36,	8.86,	1.01,	10.84,	13.35,	3.99,	12.47,	3.47,	1700,	1688
96,	8247,	7884,	8185,	8527,	8977,	8673,	8666,	8481,	8386,	8329,	8833,	8890,	8466,	9008,	10.43,	9.60,	10.89,	15.16,	14.49,	8.76,	1.36,	8.86,	1.01,	10.84,	13.35,	3.99,	12.47,	3.47,	1702,	1688
97,	8254,	7889,	8193,	8534,	8981,	8674,	8662,	8483,	8394,	8327,	8840,	8896,	8466,	9011,	10.43,	9.60,	10.89,	15.16,	14.49,	8.76,	1.36,	8.86,	1.01,	10.84,	13.35,	3.99,	12.47,	3.47,	1702,	1686
98,	8274,	7905,	8207,	8554,	9000,	8689,	8677,	8487,	8394,	8330,	8850,	8908,	8481,	9029,	10.43,	9.60,	10.89,	15.16,	14.49,	8.76,	1.36,	8.86,	1.01,	10.84,	13.35,	3.99,	12.47,	3.47,	1701,	1687
99,	8272,	7900,	8202,	8544,	8996,	8696,	8688,	8484,	8388,	8330,	8850,	8904,	8473,	9032,	10.43,	9.60,	10.89,	15.16,	14.49,	8.76,	1.36,	8.86,	1.01,	10.84,	13.35,	3.97,	12.47,	3.47,	1702,	1686
100,	8261,	7893,	8196,	8527,	8974,	8682,	8674,	8484,	8389,	8332,	8846,	8900,	8472,	9023,	10.43,	9.60,	10.89,	15.16,	14.49,	8.76,	1.36,	8.86,	1.01,	10.84,	13.35,	3.97,	12.47,	3.47,	1702,	1687
101,	8259,	7887,	8195,	8534,	8965,	8665,	8653,	8488,	8396,	8338,	8833,	8902,	8479,	9016,	10.43,	9.60,	10.89,	15.16,	14.49,	8.76,	1.36,	8.86,	1.01,	10.84,	13.35,	3.97,	12.47,	3.45,	1701,	1686
102,	8267,	7895,	8197,	8548,	8984,	8676,	8658,	8484,	8397,	8348,	8830,	8900,	8478,	9024,	10.43,	9.60,	10.89,	15.16,	14.49,	8.76,	1.36,	8.86,	1.01,	10.84,	13.36,	3.97,	12.47,	3.45,	1699,	1688
103,	8278,	7917,	8200,	8552,	9004,	8690,	8665,	8476,	8390,	8344,	8841,	8898,	8479,	9037,	10.43,	9.60,	10.89,	15.16,	14.49,	8.76,	1.36,	8.86,	1.01,	10.84,	13.36,	3.99,	12.47,	3.45,	1700,	1688
104,	8271,	7909,	8200,	8547,	8995,	8677,	8648,	8477,	8385,	8333,	8838,	8903,	8483,	9033,	10.43,	9.60,	10.89,	15.16,	14.49,	8.76,	1.36,	8.86,	1.01,	10.84,	13.36,	3.99,	12.44,	3.45,	1698,	1688
105,	8257,	7886,	8193,	8533,	8977,	8667,	8641,	8482,	8388,	8338,	8840,	8903,	8484,	9018,	10.43,	9.60,	10.89,	15.16,	14.49,	8.76,	1.36,	8.86,	1.01,	10.84,	13.36,	3.99,	12.44,	3.45,	1698,	1688
106,	8271,	7903,	8205,	8543,	8988,	8687,	8668,	8492,	8396,	8353,	8874,	8911,	8488,	9030,	10.43,	9.60,	10.89,	15.16,	14.49,	8.76,	1.36,	8.86,	1.01,	10.84,	13.33,	3.99,	12.44,	3.45,	1696,	1687
107,	8286,	7920,	8218,	8561,	9000,	8691,	8678,	8494,	8394,	8350,	8879,	8918,	8487,	9043,	10.43,	9.60,	10.89,	15.16,	14.49,	8.76,	1.36,	8.86,	1.01,	10.84,	13.33,	4.00,	12.44,	3.45,	1695,	1687
108,	8262,	7890,	8198,	8534,	8979,	8662,	8647,	8479,	8386,	8332,	8838,	8900,	8470,	9022,	10.43,	9.60,	10.89,	15.16,	14.49,	8.76,	1.36,	8.86,	1.01,	10.84,	13.33,	4.00,	12.49,	3.45,	1695,	1685
109,	8252,	7878,	8190,	8514,	8955,	8658,	8635,	8478,	8388,	8328,	8835,	8894,	8467,	9017,	10.43,	9.60,	10.89,	15.16,	14.49,	8.76,	1.36,	8.86,	1.01,	10.84,	13.33,	4.00,	12.49,	3.48,	1693,	1686
110,	8276,	7900,	8209,	8545,	8969,	8685,	8666,	8491,	8394,	8342,	8864,	8912,	8490,	9043,	10.43,	9.60,	10.89,	15.16,	14.49,	8.76,	1.36,	8.86,	1.01,	10.84,	13.36,	4.00,	12.49,	3.48,	1693,	1684
111,	8272,	7899,	8207,	8555,	8983,	8685,	8666,	8488,	8390,	8342,	8856,	8908,	8496,	9038,	10.43,	9.60,	10.89,	15.16,	14.49,	8.76,	1.36,	8.86,	1.01,	10.84,	13.36,	4.00,	12.49,	3.48,	1691,	1685
112,	8245,	7880,	8186,	8519,	8971,	8660,	8622,	8476,	8389,	8322,	8835,	8887,	8466,	9013,	10.43,	9.60,	10.89,	15.16,	14.49,	8.76,	1.36,	8.86,	1.01,	10.84,	13.36,	4.00,	12.47,	3.48,	1691,	1686
113,	8241,	7881,	8184,	8511,	8958,	8657,	8617,	8477,	8390,	8314,	8829,	8885,	8454,	9015,	10.43,	9.60,	10.89,	15.16,	14.49,	8.76,	1.36,	8.86,	1.01,	10.84,	13.36,	4.00,	12.47,	3.45,	1691,	1686
114,	8254,	7890,	8193,	8528,	8962,	8672,	8652,	8479,	8386,	8322,	8826,	8895,	8475,	9027,	10.43,	9.60,	10.89,	15.16,	14.49,	8.76,	1.36,	8.86,	1.01,	10.84,	13.33,	4.00,	12.47,	3.45,	1692,	1686
115,	8255,	7885,	8190,	8525,	8962,	8673,	8657,	8476,	8382,	8324,	8835,	8892,	8471,	9019,	10.43,	9.60,	10.89,	15.16,	14.49,	8.76,	1.36,	8.86,	1.01,	10.84,	13.33,	3.99,	12.47,	3.45,	1691,	1686
116,	8251,	7883,	8189,	8527,	8968,	8675,	8653,	8482,	8390,	8326,	8857,	8888,	8446,	9017,	10.43,	9.60,	10.89,	15.16,	14.49,	8.76,	1.36,	8.86,	1.01,	10.84,	13.33,	3.99,	12.46,	3.45,	1693,	1686
117,	8259,	7894,	8197,	8544,	8992,	8686,	8674,	8486,	8397,	8334,	8848,	8899,	8460,	9032,	10.43,	9.60,	10.89,	15.16,	14.49,	8.76,	1.36,	8.86,	1.01,	10.84,	13.33,	3.99,	12.46,	3.47,	1693,	1685
118,	8265,	7899,	8200,	8546,	8991,	8684,	8677,	8484,	8391,	8337,	8830,	8906,	8491,	9035,	10.43,	9.60,	10.89,	15.16,	14.49,	8.76,	1.36,	8.86,	1.01,	10.84,	13.35,	3.99,	12.46,	3.47,	1693,	1686
119,	8259,	7890,	8191,	8537,	8965,	8672,	8650,	8485,	8385,	8326,	8840,	8899,	8483,	9021,	10.43,	9.60,	10.89,	15.16,	14.49,	8.76,	1.36,	8.86,	1.01,	10.84,	13.35,	4.00,	12.46,	3.47,	1695,	1685
120,	8254,	7885,	8184,	8538,	8967,	8676,	8647,	8486,	8390,	8321,	8849,	8899,	8465,	9019,	10.43,	9.60,	10.89,	15.16,	14.49,	8.76,	1.36,	8.86,	1.01,	10.84,	13.35,	4.00,	12.49,	3.47,	1695,	1687
121,	8251,	7883,	8183,	8535,	8981,	8677,	8642,	8480,	8390,	8331,	8831,	8902,	8464,	9026,	10.43,	9.60,	10.89,	15.16,	14.49,	8.76,	1.36,	8.86,	1.01,	10.84,	13.35,	4.00,	12.49,	3.47,	1696,	1686
122,	8257,	7885,	8189,	8526,	8976,	8669,	8625,	8483,	8387,	8338,	8838,	8904,	8473,	9023,	10.43,	9.60,	10.89,	15.16,	14.49,	8.76,	1.36,	8.86,	1.01,	10.84,	13.35,	4.00,	12.49,	3.47,	1696,	1686
123,	8283,	7909,	8209,	8556,	8998,	8686,	8655,	8496,	8399,	8352,	8881,	8916,	8500,	9036,	10.43,	9.60,	10.89,	15.16,	14.49,	8.76,	1.36,	8.86,	1.01,	10.84,	13.35,	4.01,	12.49,	3.47,	1698,	1686
124,	8288,	7921,	8206,	8576,	9019,	8693,	8688,	8489,	8397,	8358,	8879,	8910,	8511,	9047,	10.43,	9.60,	10.89,	15.16,	14.49,	8.76,	1.36,	8.86,	1.01,	10.84,	13.35,	4.01,	12.44,	3.47,	1697,	1686
125,	8253,	7893,	8168,	8537,	8979,	8662,	8647,	8469,	8370,	8317,	8820,	8881,	8464,	9019,	10.43,	9.60,	10.89,	15.16,	14.49,	8.76,	1.36,	8.86,	1.01,	10.84,	13.35,	4.01,	12.44,	3.48,	1699,	1687
126,	8224,	7865,	8140,	8496,	8939,	8640,	8599,	8461,	8353,	8259,	8777,	8862,	8411,	8985,	10.43,	9.60,	10.89,	15.16,	14.49,	8.76,	1.36,	8.86,	1.01,	10.84,	13.38,	4.01,	12.44,	3.48,	1698,	1687
127,	8229,	7868,	8147,	8498,	8947,	8655,	8616,	8467,	8368,	8258,	8778,	8864,	8414,	8992,	10.43,	9.60,	10.89,	15.16,	14.49,	8.76,	1.36,	8.86,	1.01,	10.84,	13.38,	3.97,	12.44,	3.48,	1699,	1688
0,	8281,	7914,	8197,	8557,	9008,	8694,	8691,	8494,	8403,	8343,	8868,	8916,	8494,	9035,	10.47,	9.60,	10.89,	15.16,	14.49,	8.76,	1.36,	8.86,	1.01,	10.84,	13.38,	3.97,	12.44,	3.48,	1699,	1688
1,	8264,	7901,	8190,	8543,	8982,	8674,	8651,	8482,	8392,	8333,	8863,	8903,	8483,	9020,	10.47,	9.64,	10.89,	15.16,	14.49,	8.76,	1.36,	8.86,	1.01,	10.84,	13.38,	3.97,	12.44,	3.48,	1699,	1686
2,	8260,	7888,	8183,	8529,	8967,	8671,	8647,	8487,	8389,	8334,	8847,	8893,	8471,	9024,	10.47,	9.64,	10.71,	15.16,	14.49,	8.76,	1.36,	8.86,	1.01,	10.84,	13.38,	3.97,	12.44,	3.48,	1698,	1688
3,	8279,	7901,	8193,	8551,	9000,	8687,	8679,	8497,	8395,	8351,	8856,	8910,	8489,	9040,	10.47,	9.64,	10.71,	15.16,	14.49,	8.76,	1.36,	8.86,	1.01,	10.84,	13.38,	3.97,	12.44,	3.48,	1698,	1688
4,	8268,	7901,	8189,	8559,	9007,	8679,	8664,	8478,	8385,	8331,	8838,	8905,	8481,	9027,	10.47,	9.64,	10.71,	15.16,	14.46,	8.76,	1.36,	8.86,	1.01,	10.84,	13.38,	3.97,	12.44,	3.48,	1697,	1689
5,	8247,	7888,	8176,	8539,	8981,	8666,	8639,	8468,	8377,	8310,	8822,	8884,	8455,	9011,	10.47,	9.64,	10.71,	15.16,	14.46,	8.76,	1.36,	8.86,	1.01,	10.84,	13.38,	3.97,	12.44,	3.48,	1697,	1688
6,	8260,	7896,	8183,	8537,	8988,	8677,	8657,	8488,	8388,	8326,	8851,	8895,	8466,	9025,	10.47,	9.64,	10.71,	15.16,	14.46,	8.76,	1.38,	8.86,	1.01,	10.84,	13.38,	3.97,	12.44,	3.48,	1697,	1686
7,	8273,	7906,	8197,	8546,	9000,	8684,	8680,	8492,	8397,	8344,	8875,	8912,	8488,	9031,	10.47,	9.64,	10.71,	15.16,	14.46,	8.76,	1.38,	8.77,	1.01,	10.84,	13.38,	3.97,	12.44,	3.48,	1697,	1685
8,	8262,	7900,	8198,	8542,	8985,	8675,	8671,	8481,	8390,	8348,	8860,	8904,	8481,	9027,	10.47,	9.64,	10.71,	15.16,	14.46,	8.76,	1.38,	8.77,	1.05,	10.84,	13.38,	3.97,	12.44,	3.48,	1696,	1684
9,	8255,	7893,	8181,	8532,	8969,	8668,	8644,	8479,	8381,	8332,	8834,	8890,	8467,	9027,	10.47,	9.64,	10.71,	15.16,	14.46,	8.76,	1.38,	8.77,	1.05,	10.84,	13.38,	3.97,	12.44,	3.48,	1696,	1685
10,	8252,	7887,	8165,	8532,	8966,	8666,	8636,	8478,	8380,	8315,	8826,	8887,	8465,	9021,	10.47,	9.64,	10.71,	15.16,	14.46,	8.76,	1.38,	8.77,	1.05,	10.84,	13.33,	3.97,	12.44,	3.48,	1696,	1685
11,	8256,	7886,	8173,	8536,	8976,	8671,	8646,	8478,	8389,	8323,	8835,	8889,	8473,	9023,	10.47,	9.64,	10.71,	15.16,	14.46,	8.76,	1.38,	8.77,	1.05,	10.84,	13.33,	4.00,	12.44,	3.48,	1698,	1684
12,	8271,	7898,	8182,	8539,	8989,	8680,	8649,	8484,	8394,	8342,	8852,	8894,	8485,	9034,	10.47,	9.64,	10.71,	15.16,	14.46,	8.76,	1.38,	8.77,	1.05,	10.84,	13.33,	4.00,	12.46,	3.48,	1697,	1682
13,	8265,	7898,	8168,	8528,	8983,	8674,	8650,	8483,	8380,	8331,	8850,	8893,	8473,	9022,	10.47,	9.64,	10.71,	15.16,	14.46,	8.76,	1.38,	8.77,	1.05,	10.84,	13.33,	4.00,	12.46,	3.59,	1698,	1681
14,	8246,	7883,	8155,	8516,	8963,	8662,	8652,	8475,	8368,	8309,	8824,	8886,	8452,	9008,	10.47,	9.64,	10.71,	15.16,	14.46,	8.76,	1.38,	8.77,	1.05,	10.84,	13.33,	4.00,	12.46,	3.59,	1698,	1680
15,	8258,	7882,	8169,	8527,	8957,	8659,	8642,	8474,	8382,	8313,	8819,	8889,	8466,	9020,	10.47,	9.64,	10.71,	15.16,	14.46,	8.76,	1.38,	8.77,	1.05,	10.84,	13.33,	4.00,	12.46,	3.59,	1700,	1681
16,	8283,	7899,	8190,	8548,	8965,	8667,	8640,	8479,	8391,	8333,	8849,	8902,	8488,	9034,	10.47,	9.64,	10.71,	15.16,	14.46,	8.76,	1.38,	8.77,	1.05,	10.84,	13.33,	4.00,	12.46,	3.59,	1699,	1683
17,	8272,	7898,	8184,	8545,	8970,	8664,	8649,	8481,	8385,	8332,	8850,	8898,	8482,	9028,	10.47,	9.64,	10.71,	15.16,	14.46,	8.76,	1.38,	8.77,	1.05,	10.84,	13.33,	4.00,	12.46,	3.59,	1700,	1685
18,	8255,	7889,	8168,	8536,	8977,	8659,	8646,	8478,	8384,	8316,	8825,	8888,	8469,	9018,	10.47,	9.64,	10.71,	15.16,	14.46,	8.76,	1.38,	8.77,	1.05,	10.84,	13.33,	4.00,	12.46,	3.59,	1699,	1686
19,	8264,	7893,	8172,	8546,	8979,	8666,	8644,	8474,	8380,	8310,	8835,	8894,	8465,	9020,	10.47,	9.64,	10.71,	15.16,	14.46,	8.76,	1.38,	8.77,	1.05,	10.84,	13.33,	4.00,	12.46,	3.59,	1700,	1687
20,	8264,	7886,	8170,	8548,	8961,	8663,	8630,	8472,	8377,	8310,	8844,	8889,	8459,	9018,	10.47,	9.64,	10.71,	15.16,	14.46,	8.76,	1.38,	8.77,	1.05,	10.84,	13.33,	4.00,	12.46,	3.59,	1699,	1685
21,	8251,	7878,	8157,	8543,	8951,	8662,	8616,	8473,	8384,	8310,	8823,	8880,	8464,	9016,	10.47,	9.64,	10.71,	15.16,	14.46,	8.76,	1.38,	8.77,	1.05,	10.84,	13.33,	4.00,	12.46,	3.59,	1697,	1687
22,	8261,	7897,	8164,	8554,	8975,	8680,	8639,	8479,	8390,	8320,	8823,	8887,	8474,	9024,	10.47,	9.64,	10.71,	15.16,	14.46,	8.76,	1.38,	8.77,	1.05,	10.84,	13.33,	4.00,	12.46,	3.59,	1699,	1686
23,	8275,	7908,	8177,	8568,	8999,	8690,	8665,	8484,	8392,	8330,	8838,	8894,	8476,	9025,	10.47,	9.64,	10.71,	15.16,	14.46,	8.76,	1.38,	8.77,	1.05,	10.84,	13.33,	4.00,	12.46,	3.59,	1696,	1687
24,	8260,	7883,	8161,	8544,	8984,	8676,	8659,	8482,	8387,	8324,	8828,	8887,	8465,	9019,	10.47,	9.64,	10.71,	15.16,	14.46,	8.76,	1.38,	8.77,	1.05,	10.84,	13.33,	4.00,	12.46,	3.59,	1697,	1688
25,	8243,	7860,	8140,	8508,	8951,	8663,	8645,	8473,	8378,	8301,	8812,	8877,	8454,	9014,	10.47,	9.64,	10.71,	15.16,	14.46,	8.76,	1.38,	8.77,	1.05,	10.84,	13.33,	4.00,	12.46,	3.59,	1696,	1688
26,	8252,	7875,	8143,	8520,	8948,	8660,	8637,	8469,	8377,	8281,	8813,	8877,	8458,	9014,	10.47,	9.64,	10.71,	15.16,	14.46,	8.76,	1.38,	8.77,	1.05,	10.84,	13.33,	4.00,	12.46,	3.59,	1696,	1687
27,	8258,	7896,	8158,	8553,	8959,	8664,	8637,	8473,	8386,	8284,	8817,	8882,	8459,	9018,	10.47,	9.64,	10.71,	15.16,	14.46,	8.76,	1.38,	8.77,	1.05,	10.84,	13.33,	4.00,	12.46,	3.59,	1695,	1687
28,	8252,	7890,	8158,	8551,	8954,	8670,	8653,	8476,	8393,	8302,	8810,	8886,	8447,	9016,	10.47,	9.64,	10.71,	15.16,	14.46,	8.76,	1.38,	8.77,	1.05,	10.84,	13.33,	4.00,	12.46,	3.59,	1695,	1687
29,	8243,	7871,	8141,	8525,	8944,	8663,	8638,	8475,	8384,	8296,	8796,	8881,	8438,	9009,	10.47,	9.64,	10.71,	15.16,	14.46,	8.76,	1.38,	8.77,	1.05,	10.84,	13.33,	4.00,	12.46,	3.59,	1694,	1686
30,	8235,	7863,	8127,	8509,	8936,	8649,	8591,	8469,	8369,	8277,	8794,	8867,	8439,	9002,	10.47,	9.64,	10.71,	15.16,	14.46,	8.76,	1.38,	8.77,	1.05,	10.84,	13.33,	4.00,	12.46,	3.59,	1693,	1687
31,	8237,	7866,	8135,	8515,	8933,	8652,	8588,	8467,	8378,	8288,	8810,	8873,	8440,	9005,	10.47,	9.64,	10.71,	15.16,	14.46,	8.76,	1.38,	8.77,	1.05,	10.84,	13.33,	4.00,	12.46,	3.59,	1694,	1685
32,	8246,	7872,	8151,	8529,	8944,	8663,	8621,	8473,	8392,	8314,	8823,	8885,	8449,	9012,	10.47,	9.64,	10.71,	15.16,	14.46,	8.76,	1.38,	8.77,	1.05,	10.84,	13.33,	4.00,	12.46,	3.59,	1693,	1687
33,	8241,	7870,	8142,	8522,	8948,	8657,	8624,	8476,	8383,	8309,	8823,	8876,	8452,	9011,	10.47,	9.64,	10.71,	15.16,	14.46,	8.76,	1.38,	8.77,	1.05,	10.84,	13.33,	4.00,	12.46,	3.59,	1694,	1685
34,	8234,	7867,	8126,	8505,	8941,	8655,	8619,	8475,	8379,	8293,	8807,	8869,	8438,	9003,	10.47,	9.64,	10.71,	15.16,	14.46,	8.76,	1.38,	8.77,	1.05,	10.84,	13.33,	4.00,	12.46,	3.59,	1692,	1686
35,	8236,	7873,	8130,	8511,	8943,	8656,	8618,	8469,	8382,	8283,	8786,	8872,	8436,	8998,	10.47,	9.64,	10.71,	15.16,	14.46,	8.76,	1.38,	8.77,	1.05,	10.84,	13.33,	4.00,	12.46,	3.59,	1693,	1687
36,	8224,	7871,	8128,	8513,	8932,	8646,	8597,	8463,	8371,	8270,	8780,	8866,	8439,	8998,	10.47,	9.64,	10.71,	15.16,	14.46,	8.76,	1.38,	8.77,	1.05,	10.84,	13.33,	4.00,	12.46,	3.59,	1692,	1687
37,	8224,	7871,	8123,	8518,	8936,	8657,	8602,	8468,	8376,	8282,	8806,	8868,	8440,	9007,	10.47,	9.64,	10.71,	15.16,	14.46,	8.76,	1.38,	8.77,	1.05,	10.84,	13.33,	4.00,	12.46,	3.59,	1692,	1688
38,	8240,	7874,	8128,	8532,	8964,	8675,	8632,	8476,	8389,	8306,	8816,	8870,	8440,	9009,	10.47,	9.64,	10.71,	15.16,	14.46,	8.76,	1.38,	8.77,	1.05,	10.84,	13.33,	4.00,	12.46,	3.59,	1694,	1688
39,	8229,	7864,	8122,	8516,	8949,	8657,	8617,	8473,	8374,	8289,	8783,	8858,	8422,	8996,	10.47,	9.64,	10.71,	15.16,	14.46,	8.76,	1.38,	8.77,	1.05,	10.84,	13.33,	4.00,	12.46,	3.59,	1694,	1689
40,	8218,	7864,	8110,	8502,	8920,	8645,	8599,	8474,	8371,	8269,	8771,	8858,	8405,	8989,	10.47,	9.64,	10.71,	15.16,	14.46,	8.76,	1.38,	8.77,	1.05,	10.84,	13.33,	4.00,	12.46,	3.59,	1695,	1690
41,	8235,	7880,	8116,	8520,	8943,	8661,	8623,	8479,	8384,	8282,	8787,	8869,	8414,	9002,	10.47,	9.64,	10.71,	15.16,	14.46,	8.76,	1.38,	8.77,	1.05,	10.84,	13.33,	4.00,	12.46,	3.59,	1695,	1689
42,	8242,	7872,	8121,	8513,	8951,	8650,	8620,	8474,	8377,	8283,	8782,	8868,	8423,	9007,	10.47,	9.64,	10.71,	15.16,	14.46,	8.76,	1.38,	8.77,	1.05,	10.84,	13.33,	4.00,	12.46,	3.59,	1697,	1686
43,	8231,	7861,	8120,	8499,	8925,	8632,	8593,	8467,	8372,	8279,	8791,	8867,	8430,	9004,	10.47,	9.64,	10.71,	15.16,	14.46,	8.76,	1.38,	8.77,	1.05,	10.84,	13.33,	4.00,	12.46,	3.59,	1696,	1686
44,	8252,	7890,	8141,	8536,	8947,	8659,	8617,	8474,	8388,	8313,	8832,	8885,	8459,	9019,	10.47,	9.64,	10.71,	15.16,	14.46,	8.76,	1.38,	8.77,	1.05,	10.84,	13.33,	4.00,	12.46,	3.59,	1699,	1685
45,	8274,	7910,	8155,	8564,	8980,	8681,	8649,	8476,	8392,	8336,	8833,	8895,	8476,	9030,	10.47,	9.64,	10.71,	15.16,	14.46,	8.76,	1.38,	8.77,	1.05,	10.84,	13.33,	4.00,	12.46,	3.59,	1698,	1685
46,	8256,	7900,	8143,	8538,	8969,	8659,	8633,	8469,	8380,	8313,	8808,	8884,	8467,	9024,	10.47,	9.64,	10.71,	15.16,	14.46,	8.76,	1.38,	8.77,	1.05,	10.84,	13.33,	4.00,	12.46,	3.59,	1700,	1685
47,	8248,	7901,	8143,	8528,	8958,	8647,	8616,	8467,	8375,	8305,	8826,	8883,	8469,	9024,	10.47,	9.64,	10.71,	15.16,	14.46,	8.76,	1.38,	8.77,	1.05,	10.84,	13.33,	4.00,	12.46,	3.59,	1700,	1683
48,	8265,	7901,	8154,	8543,	8964,	8658,	8618,	8472,	8379,	8322,	8850,	8891,	8474,	9029,	10.47,	9.64,	10.71,	15.16,	14.46,	8.76,	1.38,	8.77,	1.05,	10.84,	13.33,	4.00,	12.46,	3.59,	1700,	1683
49,	8268,	7901,	8155,	8540,	8967,	8663,	8621,	8476,	8385,	8331,	8847,	8894,	8465,	9034,	10.47,	9.64,	10.71,	15.16,	14.46,	8.76,	1.38,	8.77,	1.05,	10.84,	13.33,	4.00,	12.46,	3.59,	1701,	1679
50,	8262,	7910,	8146,	8537,	8974,	8662,	8624,	8479,	8390,	8336,	8842,	8896,	8468,	9029,	10.47,	9.64,	10.71,	15.16,	14.46,	8.76,	1.38,	8.77,	1.05,	10.84,	13.33,	4.00,	12.46,	3.59,	1700,	1680
51,	8261,	7901,	8141,	8545,	8973,	8655,	8618,	8476,	8388,	8336,	8834,	8897,	8481,	9022,	10.47,	9.64,	10.71,	15.16,	14.46,	8.76,	1.38,	8.77,	1.05,	10.84,	13.33,	4.00,	12.46,	3.59,	1701,	1679
52,	8261,	7887,	8150,	8540,	8959,	8649,	8606,	8474,	8385,	8331,	8827,	8893,	8480,	9028,	10.47,	9.64,	10.71,	15.16,	14.46,	8.76,	1.38,	8.77,	1.05,	10.84,	13.33,	4.00,	12.46,	3.59,	1699,	1679
53,	8259,	7897,	8153,	8534,	8960,	8655,	8615,	8475,	8387,	8336,	8840,	8892,	8482,	9030,	10.47,	9.64,	10.71,	15.16,	14.46,	8.76,	1.38,	8.77,	1.05,	10.84,	13.33,	4.00,	12.46,	3.59,	1699,	1679
54,	8259,	7895,	8141,	8540,	8966,	8663,	8630,	8474,	8389,	8335,	8851,	8891,	8478,	9019,	10.47,	9.64,	10.71,	15.16,	14.46,	8.76,	1.38,	8.77,	1.05,	10.84,	13.33,	4.00,	12.46,	3.59,	1698,	1679
55,	8254,	7875,	8128,	8533,	8953,	8656,	8634,	8473,	8385,	8323,	8843,	8885,	8453,	9019,	10.47,	9.64,	10.71,	15.16,	14.46,	8.76,	1.38,	8.77,	1.05,	10.84,	13.33,	4.00,	12.46,	3.59,	1698,	1679
56,	8247,	7875,	8125,	8515,	8940,	8647,	8626,	8470,	8383,	8319,	8826,	8880,	8439,	9022,	10.47,	9.64,	10.71,	15.16,	14.46,	8.76,	1.38,	8.77,	1.05,	10.84,	13.33,	4.00,	12.46,	3.59,	1694,	1680
57,	8236,	7878,	8121,	8509,	8940,	8645,	8598,	8464,	8379,	8308,	8803,	8875,	8444,	9008,	10.47,	9.64,	10.71,	15.16,	14.46,	8.76,	1.38,	8.77,	1.05,	10.84,	13.33,	4.00,	12.46,	3.59,	1694,	1680
58,	8228,	7867,	8113,	8511,	8943,	8648,	8591,	8463,	8375,	8290,	8794,	8867,	8441,	9001,	10.47,	9.64,	10.71,	15.16,	14.46,	8.76,	1.38,	8.77,	1.05,	10.84,	13.33,	4.00,	12.46,	3.59,	1693,	1679
59,	8237,	7867,	8120,	8513,	8945,	8652,	8616,	8467,	8382,	8290,	8811,	8872,	8439,	9011,	10.47,	9.64,	10.71,	15.16,	14.46,	8.76,	1.38,	8.77,	1.05,	10.84,	13.33,	4.00,	12.46,	3.59,	1692,	1681
60,	8241,	7877,	8123,	8518,	8939,	8648,	8601,	8462,	8382,	8287,	8809,	8880,	8445,	9009,	10.47,	9.64,	10.71,	15.16,	14.46,	8.76,	1.38,	8.77,	1.05,	10.84,	13.33,	4.00,	12.46,	3.59,	1691,	1680
61,	8220,	7861,	8106,	8510,	8923,	8639,	8557,	8457,	8372,	8273,	8780,	8873,	8430,	8994,	10.47,	9.64,	10.71,	15.16,	14.46,	8.76,	1.38,	8.77,	1.05,	10.84,	13.33,	4.00,	12.46,	3.59,	1689,	1681
62,	8212,	7843,	8097,	8491,	8915,	8644,	8562,	8464,	8378,	8283,	8777,	8867,	8412,	8996,	10.47,	9.64,	10.71,	15.16,	14.46,	8.76,	1.38,	8.77,	1.05,	10.84,	13.33,	4.00,	12.46,	3.59,	1690,	1681
