=====================
  Training Session  
=====================
Name:		Mohamed Nour El-Din
Session:	Session_2014_05_10_71422
Date:		2014-05-10 20-34-09
Trials:		4
TrialsPerClass:	2
BlankTime:	2
SteadyTime:	1
TrainingTime:	4
Triggers:	3651, 4539, 5427, 6316
ClassesTypes:	1, 1, 2, 2
ClassesNames:	RIGHT, LEFT

RawData:
Count,	F3,	FC5,	AF3,	F7,	T7,	P7,	O1,	O2,	P8,	T8,	F8,	AF4,	FC6,	F4,	Q_F3,	Q_FC5,	Q_AF3,	Q_F7,	Q_T7,	Q_P7,	Q_O1,	Q_O2,	Q_P8,	Q_T8,	Q_F8,	Q_AF4,	Q_FC6,	Q_F4,	GyroX,	GyroY
16,	8090,	7751,	7673,	8369,	8851,	8141,	8476,	8499,	8307,	8327,	8803,	8814,	8683,	8841,	0.00,	0.00,	0.00,	0.00,	0.00,	0.00,	0.00,	0.00,	0.00,	0.00,	0.00,	0.01,	0.00,	0.00,	1707,	1678
17,	8104,	7779,	7683,	8383,	8862,	8151,	8494,	8492,	8293,	8322,	8791,	8797,	8666,	8876,	0.00,	0.00,	0.00,	0.00,	0.00,	0.00,	0.00,	0.00,	0.00,	0.00,	0.00,	0.01,	0.00,	0.00,	1707,	1677
18,	8094,	7762,	7674,	8375,	8847,	8144,	8489,	8495,	8297,	8319,	8803,	8798,	8675,	9022,	0.00,	0.00,	0.00,	0.00,	0.00,	0.00,	0.00,	0.00,	0.00,	0.00,	0.00,	0.01,	0.00,	0.00,	1704,	1677
19,	8098,	7759,	7675,	8372,	8845,	8139,	8491,	8500,	8304,	8323,	8797,	8810,	8679,	9111,	0.00,	0.00,	0.00,	0.00,	0.00,	0.00,	0.00,	0.00,	0.00,	0.00,	0.00,	0.01,	0.00,	0.00,	1702,	1677
20,	8096,	7782,	7675,	8383,	8858,	8154,	8493,	8489,	8293,	8319,	8780,	8786,	8669,	8990,	0.00,	0.00,	0.00,	0.00,	0.00,	0.00,	0.00,	0.00,	0.00,	0.00,	0.00,	0.01,	0.00,	0.00,	1700,	1677
21,	8092,	7752,	7671,	8364,	8851,	8134,	8479,	8501,	8300,	8328,	8798,	8800,	8680,	8858,	0.00,	0.00,	0.00,	0.00,	0.00,	0.00,	0.00,	0.00,	0.00,	0.00,	0.00,	0.01,	0.00,	0.00,	1697,	1680
22,	8100,	7774,	7681,	8376,	8854,	8144,	8494,	8492,	8295,	8322,	8794,	8805,	8668,	8870,	0.00,	0.00,	0.00,	0.00,	0.00,	0.00,	0.00,	0.00,	0.00,	0.00,	0.00,	0.01,	0.00,	0.00,	1694,	1683
23,	8092,	7778,	7681,	8380,	8851,	8151,	8488,	8495,	8297,	8320,	8794,	8791,	8669,	9004,	0.00,	0.00,	0.00,	0.00,	0.00,	0.00,	0.00,	0.00,	0.00,	0.00,	0.00,	0.01,	0.00,	0.00,	1692,	1685
24,	8098,	7752,	7677,	8360,	8853,	8142,	8481,	8508,	8303,	8335,	8799,	8802,	8677,	9106,	0.00,	0.00,	0.00,	0.00,	0.00,	0.00,	0.00,	0.00,	0.00,	0.00,	0.00,	0.01,	0.00,	0.00,	1690,	1686
25,	8101,	7774,	7682,	8378,	8858,	8154,	8490,	8490,	8294,	8329,	8781,	8794,	8663,	9003,	0.00,	0.00,	0.00,	0.00,	0.00,	0.00,	0.00,	0.00,	0.00,	0.00,	0.00,	0.01,	0.00,	0.00,	1688,	1691
26,	8095,	7766,	7682,	8377,	8845,	8134,	8485,	8501,	8302,	8328,	8785,	8794,	8666,	8875,	0.00,	0.00,	0.00,	0.00,	0.00,	0.00,	0.00,	0.00,	0.00,	0.00,	0.00,	0.01,	0.00,	0.00,	1689,	1692
27,	8099,	7762,	7688,	8372,	8851,	8144,	8493,	8503,	8302,	8331,	8792,	8800,	8665,	8862,	0.00,	0.00,	0.00,	0.00,	0.00,	0.00,	0.00,	0.00,	0.00,	0.00,	0.00,	0.01,	0.00,	0.00,	1687,	1695
28,	8097,	7778,	7690,	8384,	8856,	8163,	8487,	8487,	8293,	8320,	8784,	8792,	8661,	8974,	0.00,	0.00,	0.00,	0.00,	0.00,	0.00,	0.00,	0.00,	0.00,	0.00,	0.00,	0.01,	0.00,	0.00,	1688,	1696
29,	8094,	7762,	7690,	8371,	8846,	8137,	8477,	8498,	8300,	8324,	8787,	8797,	8663,	9103,	0.00,	0.00,	0.00,	0.00,	0.00,	0.00,	0.00,	0.00,	0.00,	0.00,	0.00,	0.01,	0.00,	0.00,	1687,	1699
30,	8098,	7773,	7696,	8370,	8854,	8142,	8495,	8498,	8299,	8330,	8783,	8788,	8650,	9023,	0.00,	0.00,	0.00,	0.00,	0.00,	0.00,	0.00,	0.00,	0.00,	0.00,	0.00,	0.01,	0.00,	0.00,	1689,	1700
31,	8096,	7775,	7693,	8374,	8849,	8144,	8488,	8503,	8303,	8327,	8780,	8797,	8655,	8866,	0.00,	0.00,	0.00,	0.00,	0.00,	0.00,	0.00,	0.00,	0.00,	0.00,	0.00,	0.01,	0.00,	0.00,	1689,	1699
32,	8098,	7765,	7695,	8376,	8846,	8146,	8478,	8500,	8306,	8328,	8787,	8806,	8656,	8830,	0.00,	0.00,	0.00,	0.00,	0.00,	0.00,	0.00,	0.00,	0.00,	0.00,	0.00,	0.01,	0.00,	0.00,	1691,	1700
33,	8103,	7780,	7706,	8383,	8856,	8157,	8492,	8490,	8291,	8321,	8780,	8791,	8637,	8950,	0.00,	0.00,	0.00,	0.00,	0.00,	0.00,	0.00,	0.00,	0.00,	0.00,	0.00,	0.01,	0.00,	0.00,	1692,	1699
34,	8099,	7768,	7710,	8379,	8850,	8140,	8483,	8511,	8298,	8322,	8792,	8796,	8643,	9098,	0.00,	0.00,	0.00,	0.00,	0.00,	0.00,	0.00,	0.00,	0.00,	0.00,	0.00,	0.01,	0.00,	0.00,	1694,	1698
35,	8098,	7768,	7709,	8381,	8854,	8155,	8485,	8497,	8304,	8327,	8794,	8788,	8641,	9040,	0.00,	0.00,	0.00,	0.00,	0.00,	0.00,	0.00,	0.00,	0.00,	0.00,	0.00,	0.01,	0.00,	0.00,	1695,	1696
36,	8098,	7779,	7710,	8379,	8853,	8152,	8497,	8492,	8294,	8328,	8784,	8788,	8630,	8886,	0.00,	0.00,	0.00,	0.00,	0.00,	0.00,	0.00,	0.00,	0.00,	0.00,	0.00,	0.01,	0.00,	0.00,	1696,	1695
37,	8095,	7769,	7718,	8383,	8849,	8141,	8484,	8506,	8301,	8328,	8794,	8797,	8640,	8825,	0.00,	0.00,	0.00,	0.00,	0.00,	0.00,	0.00,	0.00,	0.00,	0.00,	0.00,	0.01,	0.00,	0.00,	1697,	1692
38,	8098,	7778,	7716,	8386,	8860,	8158,	8495,	8487,	8294,	8322,	8785,	8780,	8629,	8924,	0.00,	0.00,	0.00,	0.00,	0.00,	0.00,	0.00,	0.00,	0.00,	0.00,	0.00,	0.01,	0.00,	0.00,	1696,	1691
39,	8093,	7773,	7715,	8373,	8852,	8145,	8494,	8498,	8294,	8332,	8788,	8789,	8627,	9089,	0.00,	0.00,	0.00,	0.00,	0.00,	0.00,	0.00,	0.00,	0.00,	0.00,	0.00,	0.01,	0.00,	0.00,	1699,	1688
40,	8091,	7773,	7724,	8378,	8857,	8157,	8486,	8496,	8299,	8334,	8793,	8794,	8636,	9054,	0.00,	0.00,	0.00,	0.00,	0.00,	0.00,	0.00,	0.00,	0.00,	0.00,	0.00,	0.01,	0.00,	0.00,	1699,	1686
41,	8090,	7784,	7715,	8380,	8863,	8166,	8498,	8485,	8290,	8322,	8779,	8788,	8622,	8906,	0.00,	0.00,	0.00,	0.00,	0.00,	0.00,	0.00,	0.00,	0.00,	0.00,	0.00,	0.01,	0.00,	0.00,	1699,	1684
42,	8086,	7767,	7716,	8378,	8853,	8147,	8482,	8505,	8301,	8333,	8792,	8801,	8623,	8840,	0.00,	0.00,	0.00,	0.00,	0.00,	0.00,	0.00,	0.00,	0.00,	0.00,	0.00,	0.01,	0.00,	0.00,	1700,	1682
43,	8093,	7777,	7729,	8380,	8862,	8158,	8486,	8492,	8298,	8333,	8785,	8787,	8616,	8913,	0.00,	0.00,	0.00,	0.00,	0.00,	0.00,	0.00,	0.00,	0.00,	0.00,	0.00,	0.01,	0.00,	0.00,	1699,	1680
44,	8089,	7779,	7722,	8371,	8860,	8146,	8495,	8496,	8296,	8326,	8779,	8792,	8612,	9067,	0.00,	0.00,	0.00,	0.00,	0.00,	0.00,	0.00,	0.00,	0.00,	0.00,	0.00,	0.01,	0.00,	0.00,	1699,	1678
45,	8093,	7770,	7725,	8378,	8856,	8155,	8480,	8498,	8305,	8329,	8790,	8800,	8615,	9075,	0.00,	0.00,	0.00,	0.00,	0.00,	0.00,	0.00,	0.00,	0.00,	0.00,	0.00,	0.01,	0.00,	0.00,	1698,	1678
46,	8103,	7779,	7732,	8385,	8855,	8164,	8488,	8487,	8292,	8323,	8779,	8788,	8610,	8928,	0.00,	0.00,	0.00,	0.00,	0.00,	0.00,	0.00,	0.00,	0.00,	0.00,	0.00,	0.01,	0.00,	0.00,	1699,	1677
47,	8090,	7765,	7733,	8375,	8851,	8144,	8490,	8505,	8298,	8330,	8792,	8798,	8617,	8821,	0.00,	0.00,	0.00,	0.00,	0.00,	0.00,	0.00,	0.00,	0.00,	0.00,	0.00,	0.01,	0.00,	0.00,	1698,	1677
48,	8094,	7778,	7740,	8379,	8863,	8162,	8491,	8492,	8299,	8328,	8792,	8788,	8612,	8888,	0.00,	0.00,	0.00,	0.00,	0.00,	0.00,	0.00,	0.00,	0.00,	0.00,	0.00,	0.01,	0.00,	0.00,	1697,	1681
49,	8096,	7778,	7736,	8381,	8857,	8147,	8494,	8495,	8293,	8324,	8783,	8787,	8610,	9063,	0.00,	0.00,	0.00,	0.00,	0.00,	0.00,	0.00,	0.00,	0.00,	0.00,	0.00,	0.01,	0.00,	0.00,	1697,	1682
50,	8088,	7768,	7735,	8385,	8850,	8147,	8491,	8503,	8303,	8335,	8795,	8792,	8615,	9101,	0.00,	0.00,	0.00,	0.00,	0.00,	0.00,	0.00,	0.00,	0.00,	0.00,	0.00,	0.01,	0.00,	0.00,	1694,	1683
51,	8100,	7785,	7737,	8381,	8858,	8167,	8495,	8487,	8296,	8329,	8779,	8784,	8613,	8939,	0.00,	0.00,	0.00,	0.00,	0.00,	0.00,	0.00,	0.00,	0.00,	0.00,	0.00,	0.01,	0.00,	0.00,	1693,	1686
52,	8091,	7765,	7730,	8369,	8852,	8146,	8490,	8500,	8305,	8331,	8787,	8793,	8617,	8810,	0.00,	0.00,	0.00,	0.00,	0.00,	0.00,	0.00,	0.00,	0.00,	0.00,	0.00,	0.01,	0.00,	0.00,	1692,	1686
53,	8093,	7779,	7733,	8380,	8853,	8163,	8497,	8491,	8302,	8331,	8788,	8785,	8608,	8874,	0.00,	0.00,	0.00,	0.00,	0.00,	0.00,	0.00,	0.00,	0.00,	0.00,	0.00,	0.01,	0.00,	0.00,	1695,	1689
54,	8108,	7789,	7733,	8377,	8852,	8159,	8497,	8489,	8292,	8327,	8772,	8789,	8609,	9036,	0.00,	0.00,	0.00,	0.00,	0.00,	0.00,	0.00,	0.00,	0.00,	0.00,	0.00,	0.01,	0.00,	0.00,	1697,	1692
55,	8087,	7763,	7726,	8372,	8854,	8151,	8488,	8498,	8313,	8337,	8793,	8793,	8617,	9083,	0.00,	0.00,	0.00,	0.00,	0.00,	0.00,	0.00,	0.00,	0.00,	0.00,	0.00,	0.01,	0.00,	0.00,	1699,	1695
56,	8105,	7790,	7734,	8382,	8862,	8169,	8498,	8485,	8294,	8322,	8775,	8779,	8606,	8959,	0.00,	0.00,	0.00,	0.00,	0.00,	0.00,	0.00,	0.00,	0.00,	0.00,	0.00,	0.01,	0.00,	0.00,	1701,	1694
57,	8103,	7769,	7722,	8371,	8846,	8144,	8487,	8498,	8295,	8333,	8783,	8799,	8620,	8840,	0.00,	0.00,	0.00,	0.00,	0.00,	0.00,	0.00,	0.00,	0.00,	0.00,	0.00,	0.01,	0.00,	0.00,	1700,	1696
58,	8084,	7759,	7718,	8379,	8850,	8162,	8487,	8490,	8315,	8349,	8802,	8792,	8627,	8865,	0.00,	0.00,	0.00,	0.00,	0.00,	0.00,	0.00,	0.00,	0.00,	0.00,	0.00,	0.01,	0.00,	0.00,	1704,	1696
59,	8109,	7800,	7727,	8388,	8859,	8173,	8501,	8487,	8291,	8328,	8770,	8779,	8618,	9010,	0.00,	0.00,	0.00,	0.00,	0.00,	0.00,	0.00,	0.00,	0.00,	0.00,	0.00,	0.01,	0.00,	0.00,	1703,	1696
60,	8095,	7770,	7716,	8373,	8845,	8150,	8488,	8499,	8307,	8338,	8794,	8800,	8630,	9093,	0.00,	0.00,	0.00,	0.00,	0.00,	0.00,	0.00,	0.00,	0.00,	0.00,	0.00,	0.01,	0.00,	0.00,	1705,	1696
61,	8088,	7775,	7718,	8381,	8851,	8175,	8492,	8480,	8311,	8339,	8797,	8790,	8622,	8973,	0.00,	0.00,	0.00,	0.00,	0.00,	0.00,	0.00,	0.00,	0.00,	0.00,	0.00,	0.01,	0.00,	0.00,	1705,	1694
62,	8103,	7783,	7725,	8378,	8848,	8165,	8491,	8493,	8300,	8328,	8781,	8790,	8624,	8846,	0.00,	0.00,	0.00,	0.00,	0.00,	0.00,	0.00,	0.00,	0.00,	0.00,	0.00,	0.01,	0.00,	0.00,	1704,	1692
63,	8095,	7770,	7719,	8377,	8849,	8164,	8486,	8492,	8308,	8337,	8794,	8790,	8634,	8857,	0.00,	0.00,	0.00,	0.00,	0.00,	0.00,	0.00,	0.00,	0.00,	0.00,	0.00,	0.01,	0.00,	0.00,	1702,	1689
64,	8096,	7789,	7717,	8388,	8857,	8180,	8496,	8478,	8295,	8331,	8781,	8779,	8626,	8988,	0.00,	0.00,	0.00,	0.00,	0.00,	0.00,	0.00,	0.00,	0.00,	0.00,	0.00,	0.01,	0.00,	0.00,	1701,	1689
65,	8087,	7767,	7716,	8377,	8847,	8162,	8482,	8497,	8307,	8342,	8794,	8794,	8639,	9090,	0.00,	0.03,	0.00,	0.00,	0.00,	0.00,	0.00,	0.00,	0.00,	0.00,	0.00,	0.01,	0.00,	0.00,	1699,	1686
66,	8098,	7783,	7722,	8382,	8856,	8170,	8488,	8478,	8308,	8344,	8786,	8783,	8629,	8987,	0.00,	0.03,	0.00,	0.00,	0.00,	0.00,	0.00,	0.00,	0.00,	0.00,	0.00,	0.01,	0.00,	0.00,	1697,	1687
67,	8098,	7782,	7716,	8376,	8856,	8156,	8489,	8481,	8303,	8330,	8780,	8784,	8625,	8852,	0.00,	0.03,	0.00,	0.01,	0.00,	0.00,	0.00,	0.00,	0.00,	0.00,	0.00,	0.01,	0.00,	0.00,	1696,	1686
68,	8085,	7757,	7710,	8367,	8855,	8164,	8477,	8487,	8308,	8335,	8800,	8789,	8642,	8836,	0.00,	0.03,	0.00,	0.01,	0.01,	0.00,	0.00,	0.00,	0.00,	0.00,	0.00,	0.01,	0.00,	0.00,	1693,	1686
69,	8108,	7803,	7717,	8384,	8863,	8196,	8502,	8461,	8288,	8327,	8769,	8768,	8628,	8972,	0.00,	0.03,	0.00,	0.01,	0.01,	0.03,	0.00,	0.00,	0.00,	0.00,	0.00,	0.01,	0.00,	0.00,	1693,	1686
70,	8084,	7760,	7708,	8367,	8845,	8156,	8479,	8492,	8315,	8345,	8798,	8804,	8649,	9082,	0.00,	0.03,	0.00,	0.01,	0.01,	0.03,	0.04,	0.00,	0.00,	0.00,	0.00,	0.01,	0.00,	0.00,	1691,	1686
71,	8095,	7768,	7707,	8374,	8870,	8171,	8485,	8483,	8303,	8341,	8798,	8788,	8643,	8975,	0.00,	0.03,	0.00,	0.01,	0.01,	0.03,	0.04,	0.01,	0.00,	0.00,	0.00,	0.01,	0.00,	0.00,	1692,	1686
72,	8126,	7835,	7695,	8405,	8882,	8220,	8524,	8453,	8261,	8318,	8742,	8745,	8612,	8883,	0.00,	0.03,	0.00,	0.01,	0.01,	0.03,	0.04,	0.01,	0.00,	0.00,	0.00,	0.01,	0.00,	0.00,	1694,	1684
73,	8074,	7738,	7685,	8375,	8833,	8192,	8467,	8477,	8320,	8352,	8824,	8825,	8672,	8919,	0.00,	0.03,	0.00,	0.01,	0.01,	0.03,	0.04,	0.01,	0.00,	0.04,	0.00,	0.01,	0.00,	0.00,	1693,	1684
74,	8099,	7761,	7705,	8374,	8856,	8207,	8476,	8451,	8299,	8326,	8813,	8808,	8664,	8956,	0.00,	0.03,	0.00,	0.01,	0.01,	0.03,	0.04,	0.01,	0.00,	0.04,	0.00,	0.01,	0.00,	0.00,	1694,	1683
75,	8113,	7816,	7693,	8396,	8872,	8223,	8511,	8443,	8266,	8299,	8762,	8761,	8628,	8965,	0.00,	0.03,	0.00,	0.01,	0.01,	0.03,	0.04,	0.01,	0.00,	0.04,	0.00,	0.04,	0.00,	0.00,	1694,	1684
76,	8082,	7760,	7685,	8378,	8848,	8205,	8479,	8459,	8305,	8329,	8817,	8812,	8665,	8948,	0.00,	0.03,	0.00,	0.01,	0.01,	0.03,	0.04,	0.01,	0.00,	0.04,	0.00,	0.04,	0.04,	0.00,	1695,	1685
77,	8113,	7792,	7700,	8377,	8863,	8215,	8493,	8447,	8279,	8313,	8791,	8798,	8655,	8946,	0.00,	0.03,	0.00,	0.01,	0.01,	0.03,	0.04,	0.01,	0.00,	0.04,	0.00,	0.04,	0.04,	0.19,	1695,	1686
78,	8095,	7778,	7690,	8379,	8856,	8212,	8491,	8460,	8285,	8318,	8790,	8794,	8656,	8919,	0.00,	0.03,	0.00,	0.01,	0.01,	0.03,	0.04,	0.01,	0.00,	0.04,	0.04,	0.04,	0.04,	0.19,	1696,	1685
79,	8097,	7775,	7694,	8384,	8851,	8222,	8486,	8453,	8291,	8316,	8797,	8796,	8660,	8928,	0.00,	0.03,	0.00,	0.01,	0.01,	0.03,	0.04,	0.01,	0.00,	0.04,	0.04,	0.03,	0.04,	0.19,	1694,	1686
80,	8111,	7797,	7696,	8383,	8853,	8223,	8494,	8449,	8278,	8305,	8780,	8789,	8646,	8993,	0.00,	0.03,	0.00,	0.01,	0.01,	0.03,	0.04,	0.01,	0.00,	0.04,	0.04,	0.03,	0.03,	0.19,	1696,	1687
81,	8091,	7769,	7692,	8378,	8853,	8221,	8480,	8451,	8297,	8320,	8805,	8808,	8655,	8988,	0.00,	0.03,	0.00,	0.01,	0.01,	0.03,	0.04,	0.01,	0.00,	0.04,	0.04,	0.03,	0.03,	0.18,	1695,	1687
82,	8108,	7787,	7698,	8384,	8856,	8232,	8484,	8445,	8279,	8304,	8796,	8790,	8650,	8916,	0.00,	0.03,	0.00,	0.01,	0.01,	0.03,	0.04,	0.01,	0.00,	0.04,	0.00,	0.03,	0.03,	0.18,	1695,	1689
83,	8094,	7776,	7691,	8380,	8851,	8226,	8486,	8454,	8290,	8311,	8800,	8793,	8656,	8887,	0.00,	0.03,	0.00,	0.01,	0.01,	0.03,	0.04,	0.01,	0.00,	0.04,	0.00,	0.03,	0.03,	0.18,	1695,	1690
84,	8099,	7771,	7696,	8381,	8853,	8231,	8485,	8442,	8289,	8321,	8805,	8801,	8659,	8929,	0.00,	0.03,	0.00,	0.01,	0.01,	0.03,	0.04,	0.01,	0.00,	0.04,	0.00,	0.03,	0.01,	0.18,	1694,	1692
85,	8107,	7765,	7703,	8374,	8843,	8206,	8480,	8461,	8277,	8314,	8800,	8809,	8658,	8999,	0.00,	0.03,	0.00,	0.01,	0.01,	0.03,	0.04,	0.01,	0.00,	0.04,	0.00,	0.03,	0.01,	0.18,	1695,	1692
86,	8089,	7771,	7697,	8381,	8861,	8229,	8489,	8454,	8290,	8311,	8794,	8800,	8646,	8972,	0.00,	0.03,	0.00,	0.01,	0.01,	0.03,	0.04,	0.01,	0.00,	0.04,	0.01,	0.03,	0.01,	0.18,	1694,	1693
87,	8110,	7813,	7706,	8397,	8869,	8252,	8504,	8428,	8271,	8297,	8772,	8781,	8630,	8924,	0.00,	0.03,	0.00,	0.01,	0.01,	0.03,	0.04,	0.01,	0.00,	0.04,	0.01,	0.00,	0.01,	0.18,	1695,	1692
88,	8097,	7774,	7707,	8374,	8842,	8210,	8485,	8458,	8292,	8311,	8801,	8807,	8646,	8934,	0.00,	0.03,	0.00,	0.01,	0.01,	0.03,	0.04,	0.01,	0.00,	0.04,	0.01,	0.00,	0.01,	0.18,	1695,	1692
89,	8098,	7785,	7713,	8376,	8852,	8240,	8491,	8437,	8295,	8306,	8806,	8800,	8637,	8936,	0.00,	0.03,	0.00,	0.01,	0.01,	0.03,	0.04,	0.01,	0.00,	0.04,	0.01,	0.00,	0.01,	0.22,	1696,	1692
90,	8109,	7810,	7721,	8385,	8854,	8241,	8501,	8432,	8274,	8298,	8782,	8792,	8623,	8973,	0.00,	0.03,	0.00,	0.01,	0.01,	0.03,	0.04,	0.01,	0.00,	0.04,	0.01,	0.00,	0.01,	0.22,	1696,	1691
91,	8080,	7770,	7714,	8374,	8846,	8226,	8487,	8449,	8298,	8322,	8798,	8804,	8627,	8974,	0.00,	0.03,	0.00,	0.01,	0.01,	0.03,	0.04,	0.01,	0.00,	0.04,	0.01,	0.04,	0.01,	0.22,	1697,	1691
92,	8101,	7797,	7729,	8385,	8853,	8256,	8492,	8418,	8272,	8307,	8792,	8791,	8614,	8933,	0.00,	0.03,	0.00,	0.01,	0.01,	0.03,	0.04,	0.01,	0.00,	0.04,	0.01,	0.04,	0.00,	0.22,	1696,	1689
93,	8098,	7785,	7727,	8378,	8846,	8234,	8488,	8446,	8278,	8306,	8793,	8804,	8617,	8937,	0.00,	0.03,	0.00,	0.01,	0.01,	0.03,	0.04,	0.01,	0.00,	0.04,	0.01,	0.04,	0.00,	0.18,	1697,	1690
94,	8090,	7780,	7726,	8380,	8856,	8245,	8491,	8438,	8296,	8318,	8799,	8796,	8613,	8931,	0.00,	0.03,	0.00,	0.01,	0.01,	0.03,	0.04,	0.01,	0.00,	0.04,	0.04,	0.04,	0.00,	0.18,	1697,	1687
95,	8116,	7806,	7747,	8392,	8853,	8253,	8499,	8413,	8271,	8306,	8789,	8786,	8603,	8958,	0.00,	0.03,	0.00,	0.01,	0.01,	0.03,	0.04,	0.01,	0.00,	0.04,	0.04,	0.04,	0.00,	0.18,	1695,	1687
96,	8090,	7763,	7734,	8374,	8848,	8238,	8490,	8443,	8298,	8321,	8801,	8807,	8611,	8984,	0.00,	0.03,	0.00,	0.01,	0.01,	0.03,	0.04,	0.01,	0.00,	0.04,	0.04,	0.04,	0.03,	0.18,	1697,	1684
97,	8098,	7792,	7738,	8386,	8863,	8265,	8498,	8413,	8277,	8307,	8792,	8799,	8598,	8944,	0.00,	0.03,	0.00,	0.01,	0.01,	0.03,	0.04,	0.01,	0.00,	0.04,	0.04,	0.04,	0.03,	0.21,	1696,	1682
98,	8102,	7801,	7743,	8385,	8849,	8250,	8490,	8418,	8275,	8306,	8789,	8794,	8595,	8917,	0.00,	0.03,	0.00,	0.01,	0.01,	0.03,	0.04,	0.01,	0.00,	0.04,	0.03,	0.04,	0.03,	0.21,	1696,	1681
99,	8092,	7773,	7738,	8372,	8854,	8260,	8486,	8429,	8311,	8335,	8793,	8792,	8605,	8921,	0.00,	0.03,	0.00,	0.01,	0.01,	0.03,	0.04,	0.01,	0.00,	0.04,	0.03,	0.03,	0.03,	0.21,	1694,	1681
100,	8112,	7805,	7754,	8387,	8862,	8278,	8501,	8400,	8276,	8313,	8777,	8786,	8600,	8957,	0.00,	0.03,	0.00,	0.01,	0.01,	0.03,	0.04,	0.01,	0.00,	0.04,	0.03,	0.03,	0.01,	0.21,	1695,	1682
101,	8079,	7779,	7742,	8381,	8850,	8252,	8488,	8429,	8291,	8319,	8795,	8796,	8607,	8986,	0.00,	0.03,	0.00,	0.01,	0.01,	0.03,	0.04,	0.01,	0.00,	0.04,	0.03,	0.03,	0.01,	0.18,	1694,	1683
102,	8092,	7788,	7748,	8390,	8860,	8270,	8492,	8413,	8293,	8322,	8794,	8787,	8596,	8954,	0.00,	0.03,	0.00,	0.01,	0.01,	0.03,	0.04,	0.01,	0.00,	0.04,	0.00,	0.03,	0.01,	0.18,	1695,	1684
103,	8107,	7796,	7754,	8385,	8855,	8264,	8495,	8406,	8281,	8315,	8785,	8792,	8592,	8910,	0.00,	0.03,	0.00,	0.01,	0.01,	0.03,	0.04,	0.01,	0.00,	0.04,	0.00,	0.04,	0.01,	0.18,	1695,	1687
104,	8078,	7766,	7740,	8372,	8850,	8266,	8484,	8419,	8315,	8336,	8791,	8793,	8599,	8889,	0.00,	0.03,	0.00,	0.01,	0.01,	0.03,	0.04,	0.01,	0.00,	0.04,	0.00,	0.04,	0.00,	0.18,	1696,	1689
105,	8106,	7801,	7764,	8397,	8856,	8297,	8497,	8386,	8282,	8314,	8773,	8781,	8585,	8949,	0.00,	0.03,	0.00,	0.01,	0.01,	0.03,	0.04,	0.01,	0.00,	0.04,	0.00,	0.04,	0.00,	0.19,	1695,	1691
106,	8088,	7776,	7751,	8383,	8846,	8266,	8490,	8408,	8290,	8326,	8791,	8798,	8596,	9006,	0.00,	0.03,	0.00,	0.01,	0.01,	0.03,	0.04,	0.01,	0.00,	0.04,	0.03,	0.04,	0.00,	0.19,	1697,	1691
107,	8090,	7782,	7746,	8381,	8863,	8277,	8497,	8409,	8301,	8337,	8789,	8786,	8592,	8948,	0.00,	0.03,	0.00,	0.01,	0.01,	0.03,	0.04,	0.01,	0.00,	0.04,	0.03,	0.01,	0.00,	0.19,	1698,	1690
108,	8113,	7805,	7759,	8392,	8861,	8295,	8504,	8395,	8284,	8317,	8776,	8782,	8583,	8902,	0.00,	0.03,	0.00,	0.01,	0.01,	0.03,	0.04,	0.01,	0.00,	0.04,	0.03,	0.01,	0.00,	0.19,	1699,	1691
109,	8080,	7763,	7741,	8375,	8850,	8291,	8491,	8397,	8319,	8343,	8806,	8794,	8596,	8876,	0.00,	0.03,	0.00,	0.01,	0.01,	0.03,	0.04,	0.01,	0.00,	0.04,	0.03,	0.01,	0.00,	0.22,	1698,	1690
110,	8105,	7803,	7760,	8393,	8863,	8316,	8508,	8363,	8295,	8326,	8779,	8772,	8582,	8925,	0.00,	0.03,	0.00,	0.01,	0.01,	0.03,	0.04,	0.01,	0.00,	0.04,	0.00,	0.01,	0.00,	0.22,	1700,	1690
111,	8099,	7786,	7751,	8381,	8846,	8292,	8493,	8390,	8297,	8326,	8778,	8789,	8592,	9008,	0.00,	0.03,	0.00,	0.01,	0.01,	0.03,	0.04,	0.01,	0.00,	0.04,	0.00,	0.01,	0.00,	0.22,	1701,	1689
112,	8090,	7776,	7742,	8380,	8846,	8324,	8499,	8375,	8303,	8336,	8793,	8795,	8592,	8943,	0.00,	0.03,	0.00,	0.01,	0.01,	0.03,	0.04,	0.01,	0.00,	0.04,	0.00,	0.01,	0.04,	0.22,	1702,	1691
113,	8118,	7817,	7766,	8401,	8858,	8345,	8520,	8348,	8274,	8310,	8775,	8776,	8581,	8882,	0.00,	0.03,	0.00,	0.01,	0.01,	0.03,	0.04,	0.01,	0.00,	0.04,	0.00,	0.01,	0.04,	0.18,	1702,	1689
114,	8083,	7765,	7742,	8374,	8849,	8302,	8479,	8376,	8313,	8342,	8800,	8792,	8602,	8844,	0.00,	0.03,	0.00,	0.01,	0.01,	0.03,	0.04,	0.01,	0.00,	0.04,	0.04,	0.01,	0.04,	0.18,	1701,	1690
115,	8094,	7791,	7747,	8389,	8860,	8343,	8494,	8325,	8281,	8318,	8778,	8769,	8575,	8895,	0.00,	0.03,	0.00,	0.01,	0.01,	0.03,	0.04,	0.01,	0.00,	0.04,	0.04,	0.03,	0.04,	0.18,	1703,	1689
116,	8098,	7797,	7751,	8390,	8855,	8344,	8503,	8349,	8285,	8335,	8785,	8790,	8585,	8997,	0.00,	0.03,	0.00,	0.01,	0.01,	0.03,	0.04,	0.01,	0.00,	0.04,	0.04,	0.03,	0.04,	0.18,	1701,	1689
117,	8087,	7766,	7740,	8376,	8857,	8344,	8481,	8346,	8319,	8358,	8816,	8808,	8608,	8899,	0.00,	0.03,	0.00,	0.01,	0.01,	0.03,	0.04,	0.01,	0.00,	0.04,	0.04,	0.03,	0.04,	0.19,	1702,	1688
118,	8117,	7802,	7760,	8400,	8859,	8368,	8503,	8283,	8268,	8285,	8778,	8766,	8574,	8855,	0.00,	0.03,	0.00,	0.01,	0.01,	0.03,	0.04,	0.01,	0.00,	0.04,	0.04,	0.03,	0.04,	0.19,	1700,	1686
119,	8093,	7777,	7743,	8382,	8848,	8341,	8496,	8354,	8313,	8351,	8804,	8806,	8599,	8868,	0.00,	0.03,	0.00,	0.01,	0.01,	0.03,	0.04,	0.01,	0.00,	0.04,	0.04,	0.00,	0.04,	0.19,	1700,	1685
120,	8087,	7782,	7747,	8385,	8859,	8361,	8491,	8317,	8297,	8322,	8799,	8795,	8593,	8844,	0.00,	0.03,	0.00,	0.01,	0.01,	0.03,	0.04,	0.01,	0.00,	0.04,	0.04,	0.00,	0.04,	0.19,	1698,	1685
121,	8099,	7791,	7764,	8394,	8854,	8364,	8500,	8302,	8274,	8297,	8787,	8788,	8588,	8921,	0.00,	0.03,	0.00,	0.01,	0.01,	0.03,	0.04,	0.01,	0.00,	0.04,	0.04,	0.00,	0.04,	0.18,	1698,	1685
122,	8091,	7789,	7752,	8390,	8860,	8382,	8501,	8356,	8327,	8391,	8809,	8818,	8608,	8882,	0.00,	0.03,	0.00,	0.01,	0.01,	0.03,	0.04,	0.01,	0.00,	0.04,	0.01,	0.00,	0.04,	0.18,	1696,	1684
123,	8098,	7804,	7762,	8394,	8851,	8372,	8499,	8300,	8276,	8291,	8782,	8780,	8575,	8847,	0.00,	0.03,	0.00,	0.01,	0.01,	0.03,	0.04,	0.01,	0.00,	0.04,	0.01,	0.04,	0.04,	0.18,	1695,	1685
124,	8091,	7760,	7773,	8373,	8835,	8326,	8486,	8357,	8310,	8332,	8818,	8825,	8596,	8874,	0.00,	0.03,	0.00,	0.01,	0.01,	0.03,	0.04,	0.01,	0.00,	0.04,	0.01,	0.04,	0.03,	0.18,	1695,	1684
125,	8100,	7793,	7778,	8389,	8864,	8392,	8509,	8328,	8307,	8349,	8793,	8787,	8566,	8822,	0.00,	0.03,	0.00,	0.01,	0.01,	0.03,	0.04,	0.01,	0.00,	0.04,	0.01,	0.04,	0.03,	0.19,	1692,	1686
126,	8098,	7802,	7782,	8392,	8852,	8376,	8500,	8296,	8276,	8285,	8771,	8766,	8545,	8877,	0.00,	0.03,	0.00,	0.01,	0.01,	0.03,	0.04,	0.01,	0.00,	0.04,	0.00,	0.04,	0.03,	0.19,	1691,	1686
127,	8089,	7761,	7789,	8376,	8845,	8345,	8481,	8398,	8354,	8417,	8845,	8861,	8601,	8889,	0.00,	0.03,	0.00,	0.01,	0.01,	0.03,	0.04,	0.01,	0.00,	0.04,	0.00,	0.01,	0.03,	0.19,	1688,	1686
0,	8086,	7790,	7793,	8381,	8847,	8391,	8495,	8301,	8267,	8255,	8769,	8763,	8519,	8848,	0.04,	0.03,	0.00,	0.01,	0.01,	0.03,	0.04,	0.01,	0.00,	0.04,	0.00,	0.01,	0.03,	0.19,	1689,	1686
1,	8083,	7768,	7810,	8377,	8854,	8394,	8488,	8362,	8322,	8346,	8818,	8825,	8555,	8847,	0.04,	0.00,	0.00,	0.01,	0.01,	0.03,	0.04,	0.01,	0.00,	0.04,	0.00,	0.01,	0.03,	0.19,	1690,	1686
2,	8113,	7822,	7833,	8400,	8866,	8446,	8515,	8291,	8272,	8294,	8771,	8770,	8511,	8814,	0.04,	0.00,	0.04,	0.01,	0.01,	0.03,	0.04,	0.01,	0.00,	0.04,	0.00,	0.01,	0.03,	0.19,	1691,	1686
3,	8086,	7775,	7817,	8375,	8845,	8413,	8488,	8329,	8290,	8299,	8786,	8784,	8514,	8829,	0.04,	0.00,	0.04,	0.00,	0.01,	0.03,	0.04,	0.01,	0.00,	0.04,	0.00,	0.01,	0.03,	0.19,	1693,	1685
4,	8098,	7791,	7838,	8398,	8860,	8445,	8506,	8324,	8292,	8312,	8798,	8793,	8507,	8826,	0.04,	0.00,	0.04,	0.00,	0.03,	0.03,	0.04,	0.01,	0.00,	0.04,	0.00,	0.01,	0.03,	0.19,	1694,	1685
5,	8103,	7808,	7850,	8399,	8854,	8440,	8508,	8309,	8282,	8294,	8785,	8782,	8492,	8825,	0.04,	0.00,	0.04,	0.00,	0.03,	0.00,	0.04,	0.01,	0.00,	0.04,	0.00,	0.01,	0.03,	0.19,	1695,	1685
6,	8087,	7782,	7851,	8380,	8851,	8439,	8494,	8334,	8299,	8309,	8798,	8785,	8497,	8816,	0.04,	0.00,	0.04,	0.00,	0.03,	0.00,	0.03,	0.01,	0.00,	0.04,	0.00,	0.01,	0.03,	0.19,	1697,	1684
7,	8108,	7810,	7868,	8399,	8861,	8481,	8520,	8301,	8277,	8299,	8785,	8780,	8480,	8817,	0.04,	0.00,	0.04,	0.00,	0.03,	0.00,	0.03,	0.06,	0.00,	0.04,	0.00,	0.01,	0.03,	0.19,	1696,	1687
8,	8090,	7789,	7856,	8382,	8839,	8438,	8497,	8321,	8288,	8301,	8793,	8797,	8484,	8821,	0.04,	0.00,	0.04,	0.00,	0.03,	0.00,	0.03,	0.06,	0.01,	0.04,	0.00,	0.01,	0.03,	0.19,	1698,	1688
9,	8093,	7803,	7868,	8399,	8857,	8474,	8509,	8312,	8294,	8308,	8793,	8782,	8477,	8799,	0.04,	0.00,	0.04,	0.00,	0.03,	0.00,	0.03,	0.06,	0.01,	0.01,	0.00,	0.01,	0.03,	0.19,	1697,	1689
10,	8103,	7805,	7876,	8400,	8859,	8477,	8509,	8310,	8281,	8306,	8784,	8777,	8475,	8813,	0.04,	0.00,	0.04,	0.00,	0.03,	0.00,	0.03,	0.06,	0.01,	0.01,	0.01,	0.01,	0.03,	0.19,	1697,	1691
11,	8086,	7781,	7867,	8383,	8848,	8451,	8492,	8325,	8290,	8305,	8794,	8788,	8475,	8813,	0.04,	0.00,	0.04,	0.00,	0.03,	0.00,	0.03,	0.06,	0.01,	0.01,	0.01,	0.00,	0.03,	0.19,	1697,	1690
12,	8097,	7810,	7884,	8405,	8859,	8495,	8523,	8298,	8287,	8298,	8788,	8777,	8454,	8802,	0.04,	0.00,	0.04,	0.00,	0.03,	0.00,	0.03,	0.06,	0.01,	0.01,	0.01,	0.00,	0.04,	0.19,	1696,	1691
13,	8096,	7783,	7881,	8382,	8845,	8457,	8502,	8327,	8290,	8303,	8792,	8780,	8465,	8813,	0.04,	0.00,	0.04,	0.00,	0.03,	0.00,	0.03,	0.06,	0.01,	0.01,	0.01,	0.00,	0.04,	0.03,	1696,	1690
14,	8095,	7789,	7882,	8387,	8861,	8469,	8508,	8325,	8293,	8308,	8792,	8779,	8457,	8795,	0.04,	0.00,	0.04,	0.00,	0.03,	0.00,	0.03,	0.06,	0.01,	0.01,	0.00,	0.00,	0.04,	0.03,	1696,	1690
15,	8099,	7804,	7888,	8395,	8862,	8474,	8517,	8316,	8289,	8305,	8790,	8784,	8452,	8806,	0.04,	0.00,	0.04,	0.00,	0.03,	0.00,	0.03,	0.06,	0.01,	0.01,	0.00,	0.01,	0.04,	0.03,	1696,	1688
16,	8086,	7777,	7881,	8374,	8848,	8444,	8491,	8334,	8296,	8303,	8791,	8779,	8463,	8807,	0.04,	0.00,	0.04,	0.00,	0.03,	0.00,	0.03,	0.06,	0.01,	0.01,	0.00,	0.01,	0.04,	0.03,	1697,	1688
17,	8089,	7797,	7885,	8397,	8869,	8489,	8517,	8306,	8295,	8300,	8781,	8768,	8445,	8793,	0.04,	0.00,	0.04,	0.00,	0.03,	0.00,	0.03,	0.06,	0.01,	0.01,	0.00,	0.01,	0.04,	0.03,	1698,	1687
18,	8096,	7792,	7891,	8389,	8857,	8464,	8506,	8322,	8286,	8307,	8787,	8787,	8455,	8807,	0.04,	0.00,	0.04,	0.00,	0.03,	0.00,	0.03,	0.06,	0.01,	0.01,	0.00,	0.01,	0.04,	0.03,	1698,	1688
19,	8083,	7787,	7889,	8386,	8856,	8458,	8495,	8324,	8290,	8308,	8787,	8776,	8456,	8789,	0.04,	0.00,	0.04,	0.00,	0.03,	0.00,	0.03,	0.06,	0.01,	0.01,	0.00,	0.01,	0.04,	0.03,	1701,	1687
20,	8090,	7797,	7888,	8399,	8862,	8477,	8510,	8309,	8293,	8299,	8780,	8772,	8439,	8797,	0.04,	0.00,	0.04,	0.00,	0.03,	0.00,	0.03,	0.06,	0.01,	0.01,	0.00,	0.01,	0.04,	0.03,	1700,	1687
21,	8097,	7783,	7892,	8385,	8848,	8451,	8498,	8326,	8286,	8299,	8791,	8786,	8451,	8801,	0.04,	0.00,	0.04,	0.00,	0.03,	0.00,	0.03,	0.06,	0.01,	0.01,	0.00,	0.01,	0.04,	0.03,	1702,	1687
22,	8081,	7784,	7889,	8390,	8863,	8467,	8509,	8321,	8292,	8299,	8797,	8772,	8441,	8781,	0.04,	0.00,	0.04,	0.00,	0.03,	0.00,	0.03,	0.06,	0.01,	0.01,	0.00,	0.01,	0.04,	0.03,	1701,	1686
23,	8095,	7788,	7895,	8384,	8860,	8466,	8505,	8323,	8291,	8297,	8789,	8778,	8439,	8799,	0.04,	0.00,	0.04,	0.00,	0.03,	0.00,	0.03,	0.06,	0.01,	0.01,	0.00,	0.01,	0.04,	0.03,	1701,	1688
24,	8094,	7793,	7900,	8384,	8854,	8454,	8494,	8323,	8290,	8299,	8788,	8781,	8441,	8788,	0.04,	0.00,	0.04,	0.00,	0.03,	0.00,	0.03,	0.06,	0.01,	0.01,	0.00,	0.01,	0.04,	0.03,	1701,	1686
25,	8081,	7789,	7896,	8394,	8863,	8464,	8507,	8321,	8296,	8305,	8789,	8782,	8428,	8792,	0.04,	0.00,	0.04,	0.00,	0.03,	0.00,	0.03,	0.06,	0.01,	0.01,	0.00,	0.01,	0.04,	0.03,	1701,	1685
26,	8094,	7794,	7907,	8388,	8859,	8473,	8505,	8320,	8285,	8302,	8786,	8789,	8426,	8803,	0.04,	0.00,	0.04,	0.00,	0.03,	0.00,	0.03,	0.06,	0.01,	0.01,	0.00,	0.01,	0.04,	0.03,	1700,	1684
27,	8076,	7794,	7905,	8388,	8853,	8455,	8498,	8324,	8299,	8305,	8797,	8781,	8422,	8784,	0.04,	0.00,	0.04,	0.00,	0.03,	0.00,	0.03,	0.06,	0.01,	0.01,	0.00,	0.01,	0.04,	0.03,	1699,	1683
28,	8085,	7792,	7910,	8384,	8853,	8452,	8501,	8329,	8288,	8300,	8791,	8779,	8420,	8800,	0.04,	0.00,	0.04,	0.00,	0.03,	0.00,	0.03,	0.06,	0.01,	0.01,	0.00,	0.01,	0.04,	0.03,	1697,	1682
29,	8089,	7795,	7919,	8386,	8855,	8467,	8502,	8325,	8273,	8297,	8781,	8776,	8420,	8796,	0.04,	0.00,	0.04,	0.00,	0.03,	0.00,	0.03,	0.06,	0.01,	0.01,	0.00,	0.01,	0.04,	0.03,	1696,	1682
30,	8067,	7774,	7908,	8383,	8857,	8442,	8494,	8343,	8307,	8315,	8797,	8779,	8419,	8792,	0.04,	0.00,	0.04,	0.00,	0.03,	0.00,	0.03,	0.06,	0.01,	0.01,	0.00,	0.01,	0.04,	0.03,	1694,	1684
31,	8093,	7797,	7919,	8390,	8863,	8465,	8503,	8324,	8287,	8307,	8784,	8772,	8412,	8791,	0.04,	0.00,	0.04,	0.00,	0.03,	0.00,	0.03,	0.06,	0.01,	0.01,	0.00,	0.01,	0.04,	0.03,	1693,	1686
32,	8072,	7778,	7911,	8385,	8853,	8438,	8490,	8335,	8299,	8304,	8791,	8775,	8411,	8789,	0.04,	0.00,	0.04,	0.00,	0.03,	0.00,	0.03,	0.06,	0.01,	0.01,	0.00,	0.01,	0.04,	0.03,	1693,	1687
33,	8068,	7760,	7921,	8370,	8853,	8416,	8487,	8359,	8323,	8315,	8805,	8793,	8413,	8821,	0.04,	0.00,	0.04,	0.00,	0.03,	0.00,	0.03,	0.06,	0.01,	0.01,	0.00,	0.01,	0.04,	0.03,	1692,	1689
34,	8089,	7808,	7942,	8392,	8862,	8470,	8508,	8316,	8289,	8303,	8780,	8769,	8397,	8794,	0.04,	0.00,	0.04,	0.00,	0.03,	0.00,	0.03,	0.06,	0.01,	0.01,	0.00,	0.01,	0.04,	0.03,	1692,	1689
35,	8063,	7774,	7919,	8382,	8848,	8426,	8485,	8336,	8305,	8309,	8794,	8774,	8406,	8786,	0.04,	0.00,	0.04,	0.00,	0.03,	0.00,	0.03,	0.06,	0.01,	0.01,	0.00,	0.01,	0.04,	0.03,	1693,	1691
36,	8089,	7787,	7932,	8381,	8857,	8444,	8493,	8332,	8299,	8304,	8793,	8788,	8404,	8817,	0.04,	0.00,	0.04,	0.00,	0.03,	0.00,	0.03,	0.06,	0.01,	0.01,	0.00,	0.01,	0.04,	0.03,	1695,	1690
37,	8081,	7800,	7934,	8391,	8860,	8462,	8498,	8318,	8293,	8299,	8781,	8774,	8393,	8799,	0.04,	0.00,	0.04,	0.00,	0.03,	0.00,	0.03,	0.06,	0.01,	0.01,	0.00,	0.01,	0.04,	0.03,	1695,	1691
38,	8072,	7768,	7925,	8376,	8851,	8422,	8485,	8348,	8309,	8310,	8794,	8786,	8401,	8808,	0.04,	0.00,	0.04,	0.00,	0.03,	0.00,	0.03,	0.06,	0.01,	0.01,	0.00,	0.01,	0.04,	0.03,	1699,	1692
39,	8101,	7807,	7952,	8394,	8858,	8464,	8507,	8310,	8285,	8299,	8781,	8779,	8389,	8807,	0.04,	0.00,	0.04,	0.00,	0.03,	0.00,	0.03,	0.06,	0.01,	0.01,	0.00,	0.01,	0.04,	0.03,	1699,	1691
40,	8070,	7778,	7936,	8382,	8851,	8431,	8494,	8331,	8306,	8307,	8790,	8777,	8388,	8803,	0.04,	0.00,	0.04,	0.00,	0.03,	0.00,	0.03,	0.06,	0.01,	0.01,	0.00,	0.01,	0.04,	0.03,	1702,	1693
41,	8089,	7780,	7948,	8379,	8854,	8426,	8497,	8347,	8299,	8310,	8795,	8789,	8392,	8821,	0.04,	0.00,	0.04,	0.00,	0.03,	0.00,	0.03,	0.06,	0.01,	0.01,	0.00,	0.01,	0.04,	0.03,	1702,	1691
42,	8087,	7805,	7956,	8394,	8852,	8449,	8500,	8318,	8284,	8301,	8789,	8775,	8383,	8799,	0.04,	0.00,	0.04,	0.00,	0.03,	0.00,	0.03,	0.06,	0.01,	0.01,	0.00,	0.01,	0.04,	0.03,	1704,	1693
43,	8066,	7772,	7932,	8375,	8846,	8409,	8483,	8342,	8310,	8310,	8793,	8783,	8390,	8810,	0.04,	0.00,	0.04,	0.00,	0.03,	0.00,	0.03,	0.06,	0.01,	0.01,	0.00,	0.01,	0.04,	0.03,	1705,	1691
44,	8103,	7809,	7960,	8390,	8858,	8437,	8507,	8320,	8286,	8303,	8780,	8792,	8386,	8816,	0.04,	0.00,	0.04,	0.00,	0.03,	0.00,	0.03,	0.06,	0.01,	0.01,	0.00,	0.01,	0.04,	0.03,	1705,	1691
45,	8071,	7791,	7951,	8389,	8851,	8424,	8497,	8323,	8299,	8305,	8795,	8779,	8382,	8799,	0.04,	0.00,	0.04,	0.00,	0.03,	0.00,	0.03,	0.06,	0.01,	0.01,	0.00,	0.01,	0.04,	0.03,	1705,	1691
46,	8078,	7780,	7946,	8380,	8849,	8405,	8491,	8334,	8303,	8306,	8795,	8784,	8385,	8819,	0.04,	0.00,	0.04,	0.00,	0.03,	0.00,	0.03,	0.06,	0.01,	0.01,	0.00,	0.01,	0.04,	0.03,	1703,	1690
47,	8096,	7808,	7956,	8393,	8854,	8418,	8504,	8311,	8279,	8297,	8782,	8777,	8380,	8810,	0.04,	0.00,	0.04,	0.00,	0.03,	0.00,	0.03,	0.06,	0.01,	0.01,	0.00,	0.01,	0.04,	0.03,	1704,	1689
48,	8067,	7778,	7939,	8382,	8849,	8395,	8488,	8342,	8305,	8307,	8797,	8778,	8385,	8808,	0.04,	0.00,	0.04,	0.00,	0.03,	0.00,	0.03,	0.06,	0.01,	0.01,	0.00,	0.01,	0.04,	0.03,	1701,	1688
49,	8099,	7809,	7962,	8390,	8856,	8421,	8501,	8322,	8286,	8300,	8783,	8785,	8382,	8815,	0.04,	0.00,	0.04,	0.00,	0.03,	0.00,	0.03,	0.06,	0.01,	0.01,	0.00,	0.01,	0.04,	0.03,	1701,	1687
50,	8074,	7794,	7948,	8383,	8848,	8402,	8502,	8316,	8288,	8299,	8785,	8777,	8384,	8804,	0.04,	0.00,	0.04,	0.00,	0.03,	0.00,	0.03,	0.06,	0.01,	0.01,	0.00,	0.01,	0.04,	0.03,	1698,	1687
51,	8076,	7775,	7937,	8376,	8854,	8381,	8493,	8337,	8301,	8306,	8799,	8783,	8391,	8819,	0.04,	0.00,	0.04,	0.00,	0.03,	0.00,	0.03,	0.06,	0.01,	0.01,	0.00,	0.01,	0.04,	0.03,	1697,	1687
52,	8100,	7812,	7956,	8395,	8863,	8408,	8502,	8311,	8282,	8297,	8787,	8776,	8387,	8805,	0.04,	0.00,	0.04,	0.00,	0.03,	0.00,	0.03,	0.06,	0.01,	0.01,	0.00,	0.01,	0.04,	0.03,	1697,	1685
53,	8062,	7774,	7933,	8372,	8850,	8380,	8488,	8336,	8304,	8305,	8796,	8780,	8396,	8804,	0.04,	0.00,	0.04,	0.00,	0.03,	0.00,	0.03,	0.06,	0.01,	0.01,	0.00,	0.01,	0.04,	0.03,	1695,	1686
54,	8093,	7798,	7951,	8381,	8859,	8386,	8496,	8322,	8286,	8301,	8789,	8787,	8393,	8817,	0.04,	0.00,	0.04,	0.00,	0.03,	0.00,	0.03,	0.06,	0.01,	0.01,	0.00,	0.01,	0.04,	0.03,	1696,	1685
55,	8082,	7804,	7949,	8395,	8855,	8377,	8493,	8304,	8283,	8300,	8791,	8777,	8388,	8797,	0.04,	0.00,	0.04,	0.00,	0.03,	0.00,	0.03,	0.06,	0.01,	0.01,	0.00,	0.01,	0.04,	0.03,	1695,	1686
56,	8070,	7770,	7933,	8373,	8846,	8357,	8486,	8338,	8303,	8310,	8794,	8785,	8395,	8812,	0.04,	0.00,	0.04,	0.00,	0.03,	0.00,	0.03,	0.06,	0.01,	0.01,	0.00,	0.01,	0.04,	0.03,	1695,	1685
57,	8102,	7812,	7952,	8387,	8858,	8381,	8501,	8314,	8280,	8296,	8780,	8780,	8387,	8809,	0.04,	0.00,	0.04,	0.00,	0.03,	0.00,	0.03,	0.06,	0.01,	0.01,	0.00,	0.01,	0.04,	0.03,	1695,	1685
58,	8072,	7789,	7932,	8384,	8853,	8356,	8484,	8326,	8300,	8304,	8798,	8779,	8396,	8804,	0.04,	0.00,	0.04,	0.00,	0.03,	0.00,	0.03,	0.06,	0.01,	0.01,	0.00,	0.01,	0.04,	0.03,	1695,	1685
59,	8093,	7790,	7936,	8383,	8857,	8356,	8495,	8327,	8295,	8308,	8791,	8786,	8401,	8819,	0.04,	0.00,	0.04,	0.00,	0.03,	0.00,	0.03,	0.06,	0.01,	0.01,	0.00,	0.01,	0.04,	0.03,	1694,	1686
60,	8090,	7800,	7942,	8388,	8859,	8354,	8495,	8310,	8284,	8300,	8780,	8778,	8400,	8799,	0.04,	0.00,	0.04,	0.00,	0.03,	0.00,	0.03,	0.06,	0.01,	0.01,	0.00,	0.01,	0.04,	0.03,	1695,	1687
61,	8069,	7768,	7930,	8375,	8851,	8333,	8481,	8334,	8301,	8303,	8793,	8785,	8407,	8808,	0.04,	0.00,	0.04,	0.00,	0.03,	0.00,	0.03,	0.06,	0.01,	0.01,	0.00,	0.01,	0.04,	0.03,	1696,	1686
62,	8099,	7805,	7944,	8391,	8856,	8365,	8506,	8313,	8280,	8302,	8778,	8778,	8398,	8807,	0.04,	0.00,	0.04,	0.00,	0.03,	0.00,	0.03,	0.06,	0.01,	0.01,	0.00,	0.01,	0.04,	0.03,	1696,	1687
63,	8072,	7783,	7925,	8379,	8850,	8339,	8485,	8329,	8301,	8315,	8792,	8775,	8404,	8799,	0.04,	0.00,	0.04,	0.00,	0.03,	0.00,	0.03,	0.06,	0.01,	0.01,	0.00,	0.01,	0.04,	0.03,	1697,	1685
64,	8080,	7777,	7928,	8380,	8856,	8327,	8489,	8328,	8295,	8292,	8790,	8778,	8398,	8818,	0.01,	0.00,	0.04,	0.00,	0.03,	0.00,	0.03,	0.06,	0.01,	0.01,	0.00,	0.01,	0.04,	0.03,	1695,	1685
65,	8092,	7809,	7939,	8401,	8854,	8344,	8502,	8307,	8288,	8300,	8784,	8783,	8396,	8812,	0.01,	0.03,	0.04,	0.00,	0.03,	0.00,	0.03,	0.06,	0.01,	0.01,	0.00,	0.01,	0.04,	0.03,	1697,	1683
66,	8071,	7779,	7918,	8374,	8843,	8313,	8478,	8336,	8311,	8320,	8798,	8787,	8410,	8815,	0.01,	0.03,	0.03,	0.00,	0.03,	0.00,	0.03,	0.06,	0.01,	0.01,	0.00,	0.01,	0.04,	0.03,	1696,	1683
67,	8095,	7803,	7926,	8379,	8858,	8326,	8499,	8288,	8263,	8249,	8764,	8750,	8387,	8808,	0.01,	0.03,	0.03,	0.04,	0.03,	0.00,	0.03,	0.06,	0.01,	0.01,	0.00,	0.01,	0.04,	0.03,	1697,	1684
68,	8086,	7793,	7928,	8388,	8854,	8321,	8493,	8309,	8289,	8293,	8790,	8777,	8409,	8809,	0.01,	0.03,	0.03,	0.04,	0.01,	0.00,	0.03,	0.06,	0.01,	0.01,	0.00,	0.01,	0.04,	0.03,	1698,	1684
69,	8083,	7778,	7922,	8381,	8853,	8302,	8484,	8330,	8302,	8308,	8792,	8786,	8412,	8829,	0.01,	0.03,	0.03,	0.04,	0.01,	0.00,	0.03,	0.06,	0.01,	0.01,	0.00,	0.01,	0.04,	0.03,	1699,	1686
70,	8090,	7804,	7923,	8396,	8858,	8317,	8497,	8288,	8267,	8267,	8767,	8754,	8388,	8824,	0.01,	0.03,	0.03,	0.04,	0.01,	0.00,	0.01,	0.06,	0.01,	0.01,	0.00,	0.01,	0.04,	0.03,	1699,	1688
71,	8078,	7773,	7915,	8384,	8848,	8299,	8477,	8336,	8308,	8333,	8807,	8794,	8423,	8829,	0.01,	0.03,	0.03,	0.04,	0.01,	0.00,	0.01,	0.13,	0.01,	0.01,	0.00,	0.01,	0.04,	0.03,	1701,	1691
72,	8088,	7794,	7920,	8384,	8855,	8299,	8493,	8292,	8266,	8253,	8762,	8745,	8393,	8831,	0.01,	0.03,	0.03,	0.04,	0.01,	0.00,	0.01,	0.13,	0.01,	0.01,	0.00,	0.01,	0.04,	0.03,	1702,	1692
73,	8076,	7800,	7922,	8386,	8853,	8299,	8495,	8294,	8275,	8272,	8768,	8752,	8400,	8845,	0.01,	0.03,	0.03,	0.04,	0.01,	0.00,	0.01,	0.13,	0.01,	0.04,	0.00,	0.01,	0.04,	0.03,	1703,	1695
74,	8084,	7776,	7922,	8369,	8849,	8286,	8484,	8352,	8317,	8351,	8804,	8807,	8433,	8863,	0.01,	0.03,	0.03,	0.04,	0.01,	0.00,	0.01,	0.13,	0.01,	0.04,	0.00,	0.01,	0.04,	0.03,	1704,	1695
75,	8093,	7810,	7918,	8384,	8860,	8304,	8501,	8291,	8271,	8274,	8764,	8761,	8399,	8852,	0.01,	0.03,	0.03,	0.04,	0.01,	0.00,	0.01,	0.13,	0.01,	0.04,	0.00,	0.01,	0.04,	0.03,	1703,	1697
76,	8075,	7790,	7911,	8387,	8850,	8294,	8491,	8325,	8302,	8328,	8797,	8788,	8420,	8857,	0.01,	0.03,	0.03,	0.04,	0.01,	0.00,	0.01,	0.13,	0.01,	0.04,	0.00,	0.01,	0.04,	0.03,	1705,	1696
77,	8090,	7788,	7918,	8381,	8851,	8286,	8490,	8325,	8273,	8278,	8779,	8767,	8408,	8873,	0.01,	0.03,	0.03,	0.04,	0.01,	0.00,	0.01,	0.13,	0.01,	0.04,	0.00,	0.01,	0.04,	0.03,	1703,	1695
78,	8083,	7804,	7916,	8385,	8858,	8287,	8497,	8293,	8260,	8239,	8765,	8751,	8401,	8898,	0.01,	0.03,	0.03,	0.04,	0.01,	0.00,	0.01,	0.13,	0.01,	0.04,	0.01,	0.01,	0.04,	0.03,	1703,	1695
79,	8086,	7784,	7915,	8379,	8851,	8276,	8490,	8349,	8318,	8343,	8805,	8815,	8439,	8916,	0.01,	0.03,	0.03,	0.04,	0.01,	0.00,	0.01,	0.13,	0.01,	0.04,	0.01,	0.03,	0.04,	0.03,	1702,	1692
80,	8101,	7797,	7923,	8385,	8850,	8285,	8497,	8326,	8276,	8290,	8784,	8785,	8420,	8891,	0.01,	0.03,	0.03,	0.04,	0.01,	0.00,	0.01,	0.13,	0.01,	0.04,	0.01,	0.03,	0.01,	0.03,	1701,	1692
81,	8075,	7786,	7917,	8378,	8846,	8278,	8492,	8312,	8279,	8284,	8796,	8778,	8426,	8880,	0.01,	0.03,	0.03,	0.04,	0.01,	0.00,	0.01,	0.13,	0.01,	0.04,	0.01,	0.03,	0.01,	0.00,	1700,	1691
82,	8087,	7786,	7918,	8374,	8849,	8275,	8490,	8338,	8291,	8307,	8794,	8798,	8432,	8903,	0.01,	0.03,	0.03,	0.04,	0.01,	0.00,	0.01,	0.13,	0.01,	0.04,	0.03,	0.03,	0.01,	0.00,	1699,	1691
83,	8088,	7804,	7911,	8388,	8857,	8285,	8497,	8347,	8277,	8289,	8782,	8783,	8422,	8908,	0.01,	0.03,	0.03,	0.04,	0.01,	0.00,	0.01,	0.13,	0.01,	0.04,	0.03,	0.01,	0.01,	0.00,	1698,	1691
84,	8074,	7791,	7901,	8383,	8852,	8269,	8490,	8361,	8302,	8321,	8806,	8794,	8441,	8914,	0.01,	0.03,	0.03,	0.04,	0.01,	0.00,	0.01,	0.13,	0.01,	0.04,	0.03,	0.01,	0.03,	0.00,	1696,	1694
85,	8093,	7800,	7911,	8383,	8853,	8274,	8487,	8343,	8288,	8308,	8796,	8792,	8435,	8907,	0.01,	0.03,	0.03,	0.04,	0.01,	0.00,	0.01,	0.13,	0.01,	0.04,	0.03,	0.01,	0.03,	0.04,	1695,	1692
86,	8082,	7800,	7903,	8386,	8860,	8281,	8488,	8336,	8287,	8304,	8792,	8783,	8432,	8884,	0.01,	0.03,	0.03,	0.04,	0.01,	0.00,	0.01,	0.13,	0.01,	0.04,	0.00,	0.01,	0.03,	0.04,	1696,	1691
87,	8083,	7793,	7900,	8382,	8859,	8274,	8488,	8350,	8284,	8303,	8793,	8781,	8440,	8897,	0.01,	0.03,	0.03,	0.04,	0.01,	0.00,	0.01,	0.13,	0.01,	0.04,	0.00,	0.00,	0.03,	0.04,	1695,	1688
88,	8090,	7794,	7900,	8383,	8852,	8276,	8481,	8357,	8275,	8298,	8795,	8785,	8440,	8913,	0.01,	0.03,	0.03,	0.04,	0.01,	0.00,	0.01,	0.13,	0.01,	0.04,	0.00,	0.00,	0.01,	0.04,	1696,	1686
89,	8084,	7791,	7887,	8383,	8854,	8275,	8485,	8358,	8290,	8313,	8797,	8797,	8444,	8912,	0.01,	0.03,	0.03,	0.04,	0.01,	0.00,	0.01,	0.13,	0.01,	0.04,	0.00,	0.00,	0.01,	0.01,	1695,	1683
90,	8095,	7811,	7897,	8386,	8863,	8282,	8500,	8352,	8273,	8288,	8777,	8778,	8434,	8910,	0.01,	0.03,	0.03,	0.04,	0.01,	0.00,	0.01,	0.13,	0.01,	0.04,	0.00,	0.00,	0.01,	0.01,	1696,	1682
91,	8080,	7793,	7890,	8377,	8857,	8272,	8490,	8374,	8285,	8300,	8786,	8776,	8440,	8908,	0.01,	0.03,	0.03,	0.04,	0.01,	0.00,	0.01,	0.13,	0.01,	0.04,	0.00,	0.01,	0.04,	0.01,	1696,	1680
92,	8088,	7791,	7886,	8380,	8860,	8269,	8491,	8378,	8294,	8312,	8788,	8790,	8448,	8920,	0.01,	0.03,	0.03,	0.04,	0.01,	0.00,	0.01,	0.13,	0.01,	0.04,	0.00,	0.01,	0.04,	0.01,	1697,	1681
93,	8100,	7811,	7894,	8391,	8866,	8281,	8497,	8369,	8280,	8296,	8778,	8781,	8441,	8923,	0.01,	0.03,	0.03,	0.04,	0.01,	0.00,	0.01,	0.13,	0.01,	0.04,	0.00,	0.01,	0.04,	0.01,	1699,	1680
94,	8084,	7775,	7882,	8374,	8852,	8263,	8480,	8392,	8302,	8321,	8800,	8791,	8457,	8911,	0.01,	0.03,	0.03,	0.04,	0.01,	0.00,	0.01,	0.13,	0.01,	0.04,	0.00,	0.01,	0.04,	0.01,	1698,	1680
95,	8100,	7798,	7888,	8388,	8858,	8269,	8497,	8375,	8277,	8296,	8774,	8772,	8443,	8929,	0.01,	0.03,	0.03,	0.04,	0.01,	0.00,	0.01,	0.13,	0.01,	0.04,	0.00,	0.01,	0.04,	0.01,	1701,	1680
96,	8086,	7795,	7882,	8387,	8855,	8262,	8491,	8393,	8279,	8295,	8777,	8774,	8445,	8936,	0.01,	0.03,	0.03,	0.04,	0.01,	0.00,	0.01,	0.13,	0.01,	0.04,	0.00,	0.01,	0.04,	0.01,	1700,	1680
97,	8084,	7771,	7872,	8368,	8854,	8243,	8482,	8422,	8305,	8326,	8802,	8804,	8460,	8912,	0.01,	0.03,	0.03,	0.04,	0.01,	0.00,	0.01,	0.13,	0.01,	0.04,	0.00,	0.01,	0.04,	0.03,	1702,	1680
98,	8101,	7814,	7884,	8394,	8865,	8263,	8505,	8390,	8274,	8299,	8772,	8777,	8436,	8922,	0.01,	0.03,	0.03,	0.04,	0.01,	0.00,	0.01,	0.13,	0.01,	0.04,	0.01,	0.01,	0.04,	0.03,	1702,	1680
99,	8078,	7766,	7881,	8376,	8844,	8236,	8476,	8421,	8295,	8320,	8797,	8793,	8460,	8931,	0.01,	0.03,	0.03,	0.04,	0.01,	0.00,	0.01,	0.13,	0.01,	0.04,	0.01,	0.00,	0.04,	0.03,	1702,	1683
100,	8101,	7787,	7880,	8375,	8858,	8249,	8495,	8420,	8288,	8309,	8783,	8784,	8455,	8935,	0.01,	0.03,	0.03,	0.04,	0.01,	0.00,	0.01,	0.13,	0.01,	0.04,	0.01,	0.00,	0.04,	0.03,	1702,	1683
101,	8095,	7808,	7879,	8391,	8858,	8253,	8499,	8404,	8281,	8297,	8777,	8773,	8450,	8936,	0.01,	0.03,	0.03,	0.04,	0.01,	0.00,	0.01,	0.13,	0.01,	0.04,	0.01,	0.00,	0.04,	0.04,	1702,	1683
102,	8077,	7735,	7878,	8354,	8833,	8188,	8458,	8455,	8315,	8337,	8820,	8818,	8485,	8926,	0.01,	0.03,	0.03,	0.04,	0.01,	0.00,	0.01,	0.13,	0.01,	0.04,	0.03,	0.00,	0.04,	0.04,	1702,	1683
103,	8110,	7814,	7883,	8381,	8867,	8242,	8507,	8418,	8277,	8306,	8761,	8759,	8442,	8926,	0.01,	0.03,	0.03,	0.04,	0.01,	0.00,	0.01,	0.13,	0.01,	0.04,	0.03,	0.04,	0.04,	0.04,	1702,	1685
104,	8087,	7799,	7878,	8389,	8848,	8232,	8493,	8427,	8297,	8321,	8775,	8772,	8457,	8928,	0.01,	0.03,	0.03,	0.04,	0.01,	0.00,	0.01,	0.13,	0.01,	0.04,	0.03,	0.04,	0.01,	0.04,	1703,	1685
105,	8087,	7749,	7882,	8366,	8841,	8168,	8476,	8474,	8312,	8341,	8799,	8807,	8483,	8948,	0.01,	0.03,	0.03,	0.04,	0.01,	0.00,	0.01,	0.13,	0.01,	0.04,	0.03,	0.04,	0.01,	0.00,	1701,	1686
106,	8100,	7809,	7875,	8384,	8865,	8204,	8504,	8450,	8277,	8311,	8758,	8763,	8451,	8944,	0.01,	0.03,	0.03,	0.04,	0.01,	0.00,	0.01,	0.13,	0.01,	0.04,	0.00,	0.04,	0.01,	0.00,	1701,	1685
107,	8077,	7767,	7867,	8371,	8840,	8183,	8470,	8466,	8308,	8339,	8795,	8802,	8477,	8971,	0.01,	0.03,	0.03,	0.04,	0.01,	0.00,	0.01,	0.13,	0.01,	0.04,	0.00,	0.03,	0.01,	0.00,	1698,	1685
108,	8094,	7781,	7876,	8378,	8848,	8181,	8489,	8453,	8300,	8330,	8790,	8789,	8468,	9000,	0.01,	0.03,	0.03,	0.04,	0.01,	0.00,	0.01,	0.13,	0.01,	0.04,	0.00,	0.03,	0.01,	0.00,	1698,	1687
109,	8084,	7794,	7873,	8382,	8850,	8198,	8494,	8449,	8294,	8313,	8789,	8776,	8461,	8951,	0.01,	0.03,	0.03,	0.04,	0.01,	0.00,	0.01,	0.13,	0.01,	0.04,	0.00,	0.03,	0.01,	0.03,	1697,	1686
110,	8080,	7770,	7871,	8366,	8845,	8179,	8478,	8470,	8307,	8328,	8799,	8806,	8481,	8935,	0.01,	0.03,	0.03,	0.04,	0.01,	0.00,	0.01,	0.13,	0.01,	0.04,	0.03,	0.03,	0.01,	0.03,	1695,	1688
111,	8096,	7805,	7869,	8383,	8855,	8190,	8497,	8448,	8288,	8322,	8772,	8781,	8469,	8951,	0.01,	0.03,	0.03,	0.04,	0.01,	0.00,	0.01,	0.13,	0.01,	0.04,	0.03,	0.01,	0.01,	0.03,	1694,	1687
112,	8086,	7776,	7868,	8373,	8842,	8177,	8480,	8461,	8305,	8330,	8792,	8792,	8480,	8972,	0.01,	0.03,	0.03,	0.04,	0.01,	0.00,	0.01,	0.13,	0.01,	0.04,	0.03,	0.01,	0.00,	0.03,	1691,	1689
113,	8093,	7777,	7874,	8373,	8854,	8182,	8489,	8467,	8295,	8321,	8780,	8790,	8476,	8973,	0.01,	0.03,	0.03,	0.04,	0.01,	0.00,	0.01,	0.13,	0.01,	0.04,	0.03,	0.01,	0.00,	0.01,	1689,	1689
114,	8085,	7789,	7864,	8385,	8856,	8186,	8492,	8459,	8289,	8317,	8774,	8781,	8477,	8950,	0.01,	0.03,	0.03,	0.04,	0.01,	0.00,	0.01,	0.13,	0.01,	0.04,	0.00,	0.01,	0.00,	0.01,	1687,	1691
115,	8085,	7766,	7862,	8376,	8846,	8165,	8475,	8474,	8309,	8332,	8795,	8796,	8487,	8956,	0.01,	0.03,	0.03,	0.04,	0.01,	0.00,	0.01,	0.13,	0.01,	0.04,	0.00,	0.04,	0.00,	0.01,	1686,	1692
116,	8093,	7784,	7868,	8388,	8856,	8190,	8491,	8460,	8297,	8319,	8781,	8784,	8468,	8954,	0.01,	0.03,	0.03,	0.04,	0.01,	0.00,	0.01,	0.13,	0.01,	0.04,	0.00,	0.04,	0.04,	0.01,	1683,	1694
117,	8077,	7775,	7864,	8385,	8845,	8187,	8490,	8460,	8301,	8322,	8792,	8796,	8479,	8952,	0.01,	0.03,	0.03,	0.04,	0.01,	0.00,	0.01,	0.13,	0.01,	0.04,	0.00,	0.04,	0.04,	0.03,	1685,	1696
118,	8083,	7777,	7863,	8378,	8847,	8170,	8484,	8469,	8304,	8329,	8794,	8789,	8488,	8959,	0.01,	0.03,	0.03,	0.04,	0.01,	0.00,	0.01,	0.13,	0.01,	0.04,	0.00,	0.04,	0.04,	0.03,	1684,	1696
119,	8087,	7794,	7863,	8381,	8861,	8185,	8489,	8457,	8298,	8327,	8779,	8768,	8478,	8952,	0.01,	0.03,	0.03,	0.04,	0.01,	0.00,	0.01,	0.13,	0.01,	0.04,	0.00,	0.01,	0.04,	0.03,	1686,	1698
120,	8080,	7769,	7859,	8370,	8849,	8180,	8483,	8470,	8306,	8335,	8787,	8786,	8487,	8970,	0.01,	0.03,	0.03,	0.04,	0.01,	0.00,	0.01,	0.13,	0.01,	0.04,	0.00,	0.01,	0.04,	0.03,	1687,	1698
121,	8087,	7780,	7861,	8379,	8850,	8186,	8486,	8466,	8292,	8325,	8781,	8779,	8482,	8962,	0.01,	0.03,	0.03,	0.04,	0.01,	0.00,	0.01,	0.13,	0.01,	0.04,	0.00,	0.01,	0.04,	0.03,	1688,	1699
122,	8085,	7792,	7861,	8386,	8850,	8185,	8487,	8457,	8291,	8325,	8784,	8779,	8479,	8954,	0.01,	0.03,	0.03,	0.04,	0.01,	0.00,	0.01,	0.13,	0.01,	0.04,	0.04,	0.01,	0.04,	0.03,	1692,	1698
123,	8082,	7772,	7853,	8378,	8846,	8175,	8481,	8470,	8308,	8334,	8791,	8788,	8491,	8970,	0.01,	0.03,	0.03,	0.04,	0.01,	0.00,	0.01,	0.13,	0.01,	0.04,	0.04,	0.01,	0.04,	0.03,	1694,	1697
124,	8094,	7791,	7853,	8390,	8861,	8188,	8495,	8460,	8297,	8318,	8776,	8769,	8479,	8952,	0.01,	0.03,	0.03,	0.04,	0.01,	0.00,	0.01,	0.13,	0.01,	0.04,	0.04,	0.01,	0.04,	0.03,	1697,	1696
125,	8093,	7785,	7856,	8380,	8854,	8176,	8490,	8469,	8296,	8321,	8785,	8785,	8481,	8962,	0.01,	0.03,	0.03,	0.04,	0.01,	0.00,	0.01,	0.13,	0.01,	0.04,	0.04,	0.01,	0.04,	0.03,	1699,	1694
126,	8084,	7768,	7857,	8372,	8850,	8179,	8479,	8467,	8305,	8336,	8791,	8789,	8493,	8954,	0.01,	0.03,	0.03,	0.04,	0.01,	0.00,	0.01,	0.13,	0.01,	0.04,	0.04,	0.01,	0.04,	0.03,	1702,	1692
127,	8089,	7807,	7849,	8395,	8864,	8202,	8501,	8446,	8286,	8321,	8760,	8761,	8475,	8958,	0.01,	0.03,	0.03,	0.04,	0.01,	0.00,	0.01,	0.13,	0.01,	0.04,	0.04,	0.01,	0.04,	0.03,	1703,	1690
0,	8078,	7758,	7851,	8369,	8848,	8181,	8477,	8469,	8312,	8345,	8804,	8801,	8497,	8927,	0.01,	0.03,	0.03,	0.04,	0.01,	0.00,	0.01,	0.13,	0.01,	0.04,	0.04,	0.01,	0.04,	0.03,	1707,	1684
1,	8090,	7836,	7843,	8395,	8878,	8227,	8523,	8428,	8278,	8324,	8740,	8730,	8451,	8977,	0.01,	0.04,	0.03,	0.04,	0.01,	0.00,	0.01,	0.13,	0.01,	0.04,	0.04,	0.01,	0.04,	0.03,	1709,	1683
2,	8078,	7775,	7840,	8371,	8842,	8207,	8478,	8454,	8312,	8345,	8791,	8804,	8494,	9031,	0.01,	0.04,	0.03,	0.04,	0.01,	0.00,	0.01,	0.13,	0.01,	0.04,	0.04,	0.01,	0.04,	0.03,	1710,	1681
3,	8077,	7744,	7853,	8364,	8844,	8200,	8470,	8451,	8318,	8344,	8825,	8820,	8514,	8945,	0.01,	0.04,	0.03,	0.03,	0.01,	0.00,	0.01,	0.13,	0.01,	0.04,	0.04,	0.01,	0.04,	0.03,	1709,	1682
4,	8092,	7809,	7850,	8389,	8872,	8227,	8514,	8433,	8284,	8313,	8767,	8752,	8477,	8876,	0.01,	0.04,	0.03,	0.03,	0.03,	0.00,	0.01,	0.13,	0.01,	0.04,	0.04,	0.01,	0.04,	0.03,	1709,	1680
5,	8086,	7796,	7847,	8384,	8858,	8226,	8494,	8439,	8300,	8323,	8777,	8777,	8491,	8906,	0.01,	0.04,	0.03,	0.03,	0.03,	0.03,	0.01,	0.13,	0.01,	0.04,	0.04,	0.01,	0.04,	0.03,	1706,	1680
6,	8080,	7769,	7848,	8370,	8851,	8201,	8482,	8448,	8309,	8332,	8795,	8798,	8506,	8969,	0.01,	0.04,	0.03,	0.03,	0.03,	0.03,	0.03,	0.13,	0.01,	0.04,	0.04,	0.01,	0.04,	0.03,	1705,	1680
7,	8083,	7785,	7854,	8376,	8858,	8199,	8501,	8450,	8290,	8324,	8779,	8775,	8489,	8972,	0.01,	0.04,	0.03,	0.03,	0.03,	0.03,	0.03,	0.01,	0.01,	0.04,	0.04,	0.01,	0.04,	0.03,	1702,	1680
8,	8079,	7788,	7852,	8386,	8853,	8213,	8495,	8443,	8291,	8326,	8782,	8772,	8489,	8943,	0.01,	0.04,	0.03,	0.03,	0.03,	0.03,	0.03,	0.01,	0.04,	0.04,	0.04,	0.01,	0.04,	0.03,	1700,	1680
9,	8080,	7771,	7844,	8375,	8847,	8199,	8481,	8457,	8302,	8336,	8790,	8788,	8503,	8941,	0.01,	0.04,	0.03,	0.03,	0.03,	0.03,	0.03,	0.01,	0.04,	0.01,	0.04,	0.01,	0.04,	0.03,	1698,	1681
10,	8086,	7788,	7845,	8377,	8855,	8203,	8489,	8450,	8291,	8329,	8778,	8772,	8496,	8937,	0.01,	0.04,	0.03,	0.03,	0.03,	0.03,	0.03,	0.01,	0.04,	0.01,	0.01,	0.01,	0.04,	0.03,	1696,	1682
11,	8084,	7786,	7842,	8380,	8848,	8203,	8487,	8445,	8292,	8327,	8780,	8771,	8498,	8950,	0.01,	0.04,	0.03,	0.03,	0.03,	0.03,	0.03,	0.01,	0.04,	0.01,	0.01,	0.04,	0.04,	0.03,	1689,	1685
12,	8083,	7778,	7838,	8379,	8847,	8195,	8496,	8451,	8297,	8330,	8780,	8782,	8498,	8976,	0.01,	0.04,	0.03,	0.03,	0.03,	0.03,	0.03,	0.01,	0.04,	0.01,	0.01,	0.04,	0.00,	0.03,	1687,	1687
13,	8082,	7795,	7842,	8389,	8856,	8205,	8496,	8440,	8293,	8322,	8777,	8772,	8491,	8945,	0.01,	0.04,	0.03,	0.03,	0.03,	0.03,	0.03,	0.01,	0.04,	0.01,	0.01,	0.04,	0.00,	0.00,	1683,	1690
14,	8087,	7774,	7843,	8376,	8852,	8189,	8483,	8455,	8304,	8327,	8791,	8786,	8502,	8939,	0.01,	0.04,	0.03,	0.03,	0.03,	0.03,	0.03,	0.01,	0.04,	0.01,	0.04,	0.04,	0.00,	0.00,	1682,	1694
15,	8088,	7780,	7834,	8376,	8856,	8204,	8504,	8446,	8300,	8326,	8777,	8779,	8495,	8939,	0.01,	0.04,	0.03,	0.03,	0.03,	0.03,	0.03,	0.01,	0.04,	0.01,	0.04,	0.00,	0.00,	0.00,	1680,	1699
16,	8080,	7791,	7831,	8390,	8854,	8215,	8493,	8436,	8299,	8331,	8779,	8777,	8501,	8942,	0.01,	0.04,	0.03,	0.03,	0.03,	0.03,	0.03,	0.01,	0.04,	0.01,	0.04,	0.00,	0.00,	0.00,	1680,	1703
17,	8084,	7776,	7832,	8384,	8854,	8198,	8483,	8447,	8294,	8333,	8787,	8783,	8508,	8970,	0.01,	0.04,	0.03,	0.03,	0.03,	0.03,	0.03,	0.01,	0.04,	0.01,	0.04,	0.00,	0.00,	0.00,	1680,	1707
18,	8087,	7786,	7827,	8381,	8854,	8204,	8498,	8445,	8288,	8326,	8777,	8774,	8495,	8951,	0.01,	0.04,	0.03,	0.03,	0.03,	0.03,	0.03,	0.01,	0.04,	0.01,	0.04,	0.00,	0.00,	0.00,	1682,	1712
19,	8086,	7784,	7829,	8379,	8849,	8197,	8489,	8459,	8301,	8331,	8782,	8783,	8503,	8940,	0.01,	0.04,	0.03,	0.03,	0.03,	0.03,	0.03,	0.01,	0.04,	0.01,	0.04,	0.00,	0.00,	0.00,	1684,	1718
20,	8090,	7787,	7835,	8385,	8857,	8199,	8494,	8454,	8289,	8324,	8775,	8770,	8496,	8946,	0.01,	0.04,	0.03,	0.03,	0.03,	0.03,	0.03,	0.01,	0.04,	0.01,	0.04,	0.00,	0.00,	0.00,	1689,	1727
21,	8084,	7787,	7828,	8382,	8852,	8200,	8494,	8447,	8294,	8327,	8780,	8767,	8494,	8945,	0.01,	0.04,	0.03,	0.03,	0.03,	0.03,	0.03,	0.01,	0.04,	0.01,	0.04,	0.00,	0.00,	0.00,	1695,	1729
22,	8092,	7783,	7832,	8378,	8847,	8190,	8487,	8457,	8306,	8327,	8784,	8780,	8498,	8961,	0.01,	0.04,	0.03,	0.03,	0.03,	0.03,	0.03,	0.01,	0.04,	0.01,	0.04,	0.00,	0.00,	0.00,	1697,	1733
23,	8090,	7791,	7837,	8389,	8854,	8203,	8495,	8454,	8290,	8320,	8771,	8769,	8490,	8951,	0.01,	0.04,	0.03,	0.03,	0.03,	0.03,	0.03,	0.01,	0.04,	0.01,	0.04,	0.00,	0.00,	0.00,	1704,	1732
24,	8079,	7776,	7829,	8380,	8845,	8195,	8486,	8465,	8299,	8333,	8787,	8781,	8502,	8957,	0.01,	0.04,	0.03,	0.03,	0.03,	0.03,	0.03,	0.01,	0.04,	0.01,	0.04,	0.00,	0.00,	0.00,	1708,	1729
25,	8097,	7790,	7834,	8379,	8847,	8196,	8482,	8465,	8295,	8321,	8787,	8786,	8497,	8964,	0.01,	0.04,	0.03,	0.03,	0.03,	0.03,	0.03,	0.01,	0.04,	0.01,	0.04,	0.00,	0.00,	0.00,	1714,	1726
26,	8085,	7792,	7828,	8386,	8852,	8205,	8493,	8463,	8291,	8320,	8777,	8771,	8490,	8948,	0.01,	0.04,	0.03,	0.03,	0.03,	0.03,	0.03,	0.01,	0.04,	0.01,	0.04,	0.00,	0.00,	0.00,	1717,	1720
27,	8083,	7777,	7835,	8383,	8843,	8190,	8488,	8480,	8306,	8339,	8790,	8796,	8507,	8967,	0.01,	0.04,	0.03,	0.03,	0.03,	0.03,	0.03,	0.01,	0.04,	0.01,	0.04,	0.00,	0.00,	0.00,	1721,	1715
28,	8098,	7797,	7846,	8388,	8849,	8204,	8486,	8466,	8295,	8325,	8785,	8790,	8500,	8958,	0.01,	0.04,	0.03,	0.03,	0.03,	0.03,	0.03,	0.01,	0.04,	0.01,	0.04,	0.00,	0.00,	0.00,	1723,	1708
29,	8077,	7781,	7823,	8375,	8849,	8201,	8492,	8464,	8297,	8329,	8781,	8769,	8496,	8951,	0.01,	0.04,	0.03,	0.03,	0.03,	0.03,	0.03,	0.01,	0.04,	0.01,	0.04,	0.00,	0.00,	0.00,	1726,	1703
30,	8089,	7783,	7844,	8377,	8843,	8187,	8481,	8476,	8294,	8333,	8788,	8797,	8512,	8961,	0.01,	0.04,	0.03,	0.03,	0.03,	0.03,	0.03,	0.01,	0.04,	0.01,	0.04,	0.00,	0.00,	0.00,	1726,	1699
31,	8075,	7792,	7840,	8385,	8853,	8204,	8485,	8464,	8288,	8319,	8785,	8777,	8505,	8942,	0.01,	0.04,	0.03,	0.03,	0.03,	0.03,	0.03,	0.01,	0.04,	0.01,	0.04,	0.00,	0.00,	0.00,	1725,	1696
32,	8065,	7770,	7814,	8371,	8849,	8192,	8490,	8475,	8304,	8328,	8792,	8773,	8502,	8957,	0.01,	0.04,	0.03,	0.03,	0.03,	0.03,	0.03,	0.01,	0.04,	0.01,	0.04,	0.00,	0.00,	0.00,	1725,	1692
33,	8091,	7786,	7839,	8378,	8850,	8192,	8476,	8476,	8298,	8330,	8791,	8801,	8508,	8949,	0.01,	0.04,	0.03,	0.03,	0.03,	0.03,	0.03,	0.01,	0.04,	0.01,	0.04,	0.00,	0.00,	0.00,	1723,	1689
34,	8071,	7788,	7825,	8381,	8862,	8204,	8484,	8464,	8294,	8323,	8778,	8768,	8499,	8945,	0.01,	0.04,	0.03,	0.03,	0.03,	0.03,	0.03,	0.01,	0.04,	0.01,	0.04,	0.00,	0.00,	0.00,	1722,	1684
35,	8077,	7774,	7830,	8376,	8857,	8195,	8483,	8470,	8301,	8330,	8787,	8776,	8506,	8965,	0.01,	0.04,	0.03,	0.03,	0.03,	0.03,	0.03,	0.01,	0.04,	0.01,	0.04,	0.00,	0.00,	0.00,	1717,	1682
36,	8080,	7782,	7845,	8383,	8860,	8199,	8480,	8457,	8293,	8326,	8788,	8780,	8507,	8940,	0.01,	0.04,	0.03,	0.03,	0.03,	0.03,	0.03,	0.01,	0.04,	0.01,	0.04,	0.00,	0.00,	0.00,	1717,	1680
37,	8066,	7780,	7824,	8379,	8861,	8191,	8493,	8464,	8295,	8329,	8782,	8764,	8503,	8955,	0.01,	0.04,	0.03,	0.03,	0.03,	0.03,	0.03,	0.01,	0.04,	0.01,	0.04,	0.00,	0.00,	0.00,	1713,	1678
38,	8078,	7788,	7838,	8384,	8860,	8198,	8488,	8464,	8296,	8334,	8786,	8778,	8508,	8958,	0.01,	0.04,	0.03,	0.03,	0.03,	0.03,	0.03,	0.01,	0.04,	0.01,	0.04,	0.00,	0.00,	0.00,	1709,	1680
39,	8073,	7786,	7834,	8386,	8864,	8206,	8480,	8453,	8296,	8325,	8785,	8764,	8509,	8936,	0.01,	0.04,	0.03,	0.03,	0.03,	0.03,	0.03,	0.01,	0.04,	0.01,	0.04,	0.00,	0.00,	0.00,	1706,	1682
40,	8084,	7776,	7830,	8374,	8860,	8192,	8483,	8468,	8296,	8329,	8786,	8772,	8511,	8947,	0.01,	0.04,	0.03,	0.03,	0.03,	0.03,	0.03,	0.01,	0.04,	0.01,	0.04,	0.00,	0.00,	0.00,	1703,	1683
41,	8084,	7785,	7842,	8383,	8860,	8197,	8485,	8464,	8290,	8329,	8784,	8777,	8508,	8934,	0.01,	0.04,	0.03,	0.03,	0.03,	0.03,	0.03,	0.01,	0.04,	0.01,	0.04,	0.00,	0.00,	0.00,	1700,	1685
42,	8071,	7774,	7827,	8376,	8864,	8195,	8482,	8467,	8299,	8326,	8785,	8771,	8510,	8961,	0.01,	0.04,	0.03,	0.03,	0.03,	0.03,	0.03,	0.01,	0.04,	0.01,	0.04,	0.00,	0.00,	0.00,	1697,	1688
43,	8088,	7779,	7825,	8372,	8866,	8195,	8492,	8462,	8298,	8333,	8784,	8780,	8516,	8983,	0.01,	0.04,	0.03,	0.03,	0.03,	0.03,	0.03,	0.01,	0.04,	0.01,	0.04,	0.00,	0.00,	0.00,	1695,	1686
44,	8081,	7787,	7820,	8382,	8861,	8199,	8489,	8456,	8287,	8328,	8782,	8771,	8516,	8942,	0.01,	0.04,	0.03,	0.03,	0.03,	0.03,	0.03,	0.01,	0.04,	0.01,	0.04,	0.00,	0.00,	0.00,	1693,	1688
45,	8077,	7773,	7818,	8376,	8857,	8188,	8485,	8473,	8291,	8326,	8784,	8774,	8516,	8929,	0.01,	0.04,	0.03,	0.03,	0.03,	0.03,	0.03,	0.01,	0.04,	0.01,	0.04,	0.00,	0.00,	0.00,	1694,	1688
46,	8089,	7791,	7826,	8384,	8864,	8201,	8497,	8460,	8294,	8331,	8780,	8778,	8510,	8934,	0.01,	0.04,	0.03,	0.03,	0.03,	0.03,	0.03,	0.01,	0.04,	0.01,	0.04,	0.00,	0.00,	0.00,	1693,	1689
47,	8083,	7782,	7814,	8381,	8855,	8197,	8485,	8463,	8300,	8332,	8783,	8774,	8514,	8962,	0.01,	0.04,	0.03,	0.03,	0.03,	0.03,	0.03,	0.01,	0.04,	0.01,	0.04,	0.00,	0.00,	0.00,	1693,	1689
48,	8082,	7768,	7818,	8374,	8849,	8191,	8489,	8467,	8288,	8321,	8780,	8769,	8513,	8977,	0.01,	0.04,	0.03,	0.03,	0.03,	0.03,	0.03,	0.01,	0.04,	0.01,	0.04,	0.00,	0.00,	0.00,	1693,	1688
49,	8089,	7792,	7820,	8388,	8862,	8206,	8502,	8461,	8286,	8318,	8782,	8772,	8510,	8945,	0.01,	0.04,	0.03,	0.03,	0.03,	0.03,	0.03,	0.01,	0.04,	0.01,	0.04,	0.00,	0.00,	0.00,	1692,	1689
50,	8092,	7785,	7809,	8381,	8855,	8193,	8492,	8476,	8300,	8331,	8789,	8784,	8521,	8939,	0.01,	0.04,	0.03,	0.03,	0.03,	0.03,	0.03,	0.01,	0.04,	0.01,	0.04,	0.00,	0.00,	0.00,	1693,	1689
51,	8084,	7780,	7817,	8377,	8845,	8198,	8490,	8462,	8290,	8326,	8777,	8772,	8512,	8944,	0.01,	0.04,	0.03,	0.03,	0.03,	0.03,	0.03,	0.01,	0.04,	0.01,	0.04,	0.00,	0.00,	0.00,	1693,	1690
52,	8081,	7785,	7814,	8382,	8853,	8205,	8486,	8465,	8294,	8325,	8783,	8774,	8514,	8953,	0.01,	0.04,	0.03,	0.03,	0.03,	0.03,	0.03,	0.01,	0.04,	0.01,	0.04,	0.00,	0.00,	0.00,	1693,	1691
53,	8090,	7783,	7809,	8378,	8859,	8197,	8488,	8477,	8295,	8326,	8786,	8786,	8525,	8958,	0.01,	0.04,	0.03,	0.03,	0.03,	0.03,	0.03,	0.01,	0.04,	0.01,	0.04,	0.00,	0.00,	0.00,	1692,	1693
54,	8091,	7790,	7816,	8380,	8855,	8206,	8493,	8460,	8284,	8317,	8780,	8775,	8517,	8937,	0.01,	0.04,	0.03,	0.03,	0.03,	0.03,	0.03,	0.01,	0.04,	0.01,	0.04,	0.00,	0.00,	0.00,	1694,	1692
55,	8088,	7784,	7807,	8379,	8854,	8194,	8486,	8469,	8296,	8322,	8789,	8780,	8523,	8954,	0.01,	0.04,	0.03,	0.03,	0.03,	0.03,	0.03,	0.01,	0.04,	0.01,	0.04,	0.00,	0.00,	0.00,	1692,	1693
56,	8085,	7782,	7803,	8381,	8860,	8203,	8489,	8469,	8297,	8324,	8785,	8777,	8521,	8953,	0.01,	0.04,	0.03,	0.03,	0.03,	0.03,	0.03,	0.01,	0.04,	0.01,	0.04,	0.00,	0.00,	0.00,	1693,	1694
57,	8085,	7778,	7806,	8383,	8851,	8210,	8492,	8464,	8294,	8324,	8781,	8773,	8522,	8941,	0.01,	0.04,	0.03,	0.03,	0.03,	0.03,	0.03,	0.01,	0.04,	0.01,	0.04,	0.00,	0.00,	0.00,	1691,	1694
58,	8089,	7778,	7800,	8384,	8853,	8192,	8492,	8473,	8294,	8322,	8785,	8780,	8530,	8957,	0.01,	0.04,	0.03,	0.03,	0.03,	0.03,	0.03,	0.01,	0.04,	0.01,	0.04,	0.00,	0.00,	0.00,	1690,	1693
59,	8081,	7784,	7801,	8385,	8865,	8197,	8492,	8462,	8288,	8316,	8781,	8776,	8528,	8943,	0.01,	0.04,	0.03,	0.03,	0.03,	0.03,	0.03,	0.01,	0.04,	0.01,	0.04,	0.00,	0.00,	0.00,	1689,	1691
60,	8080,	7771,	7809,	8380,	8856,	8193,	8491,	8472,	8294,	8321,	8788,	8788,	8534,	8954,	0.01,	0.04,	0.03,	0.03,	0.03,	0.03,	0.03,	0.01,	0.04,	0.01,	0.04,	0.00,	0.00,	0.00,	1688,	1690
61,	8098,	7792,	7804,	8395,	8858,	8202,	8507,	8478,	8290,	8318,	8793,	8783,	8531,	8958,	0.01,	0.04,	0.03,	0.03,	0.03,	0.03,	0.03,	0.01,	0.04,	0.01,	0.04,	0.00,	0.00,	0.00,	1690,	1689
62,	8082,	7790,	7795,	8386,	8852,	8202,	8493,	8463,	8288,	8317,	8785,	8771,	8524,	8943,	0.01,	0.04,	0.03,	0.03,	0.03,	0.03,	0.03,	0.01,	0.04,	0.01,	0.04,	0.00,	0.00,	0.00,	1688,	1690
63,	8078,	7763,	7805,	8366,	8845,	8181,	8473,	8474,	8298,	8323,	8785,	8782,	8538,	8960,	0.01,	0.04,	0.03,	0.03,	0.03,	0.03,	0.03,	0.01,	0.04,	0.01,	0.04,	0.00,	0.00,	0.00,	1689,	1689
64,	8095,	7784,	7805,	8388,	8863,	8198,	8494,	8471,	8288,	8315,	8786,	8781,	8540,	8947,	0.03,	0.04,	0.03,	0.03,	0.03,	0.03,	0.03,	0.01,	0.04,	0.01,	0.04,	0.00,	0.00,	0.00,	1688,	1690
65,	8083,	7778,	7801,	8389,	8856,	8195,	8493,	8473,	8291,	8318,	8789,	8786,	8530,	8948,	0.03,	0.01,	0.03,	0.03,	0.03,	0.03,	0.03,	0.01,	0.04,	0.01,	0.04,	0.00,	0.00,	0.00,	1688,	1689
66,	8082,	7770,	7809,	8377,	8852,	8195,	8478,	8472,	8294,	8324,	8786,	8788,	8529,	8958,	0.03,	0.01,	0.03,	0.03,	0.03,	0.03,	0.03,	0.01,	0.04,	0.01,	0.04,	0.00,	0.00,	0.00,	1689,	1688
67,	8089,	7790,	7808,	8379,	8862,	8203,	8488,	8458,	8277,	8322,	8782,	8781,	8523,	8945,	0.03,	0.01,	0.03,	0.00,	0.03,	0.03,	0.03,	0.01,	0.04,	0.01,	0.04,	0.00,	0.00,	0.00,	1688,	1687
68,	8084,	7782,	7805,	8378,	8857,	8184,	8493,	8480,	8284,	8324,	8792,	8786,	8524,	8960,	0.03,	0.01,	0.03,	0.00,	0.01,	0.03,	0.03,	0.01,	0.04,	0.01,	0.04,	0.00,	0.00,	0.00,	1688,	1689
69,	8092,	7778,	7811,	8386,	8863,	8198,	8493,	8476,	8294,	8321,	8788,	8780,	8522,	8949,	0.03,	0.01,	0.03,	0.00,	0.01,	0.01,	0.03,	0.01,	0.04,	0.01,	0.04,	0.00,	0.00,	0.00,	1688,	1689
70,	8095,	7779,	7819,	8383,	8860,	8203,	8490,	8466,	8288,	8324,	8784,	8783,	8523,	8952,	0.03,	0.01,	0.03,	0.00,	0.01,	0.01,	0.03,	0.01,	0.04,	0.01,	0.04,	0.00,	0.00,	0.00,	1687,	1689
71,	8089,	7783,	7820,	8378,	8856,	8194,	8484,	8481,	8286,	8320,	8786,	8784,	8526,	8965,	0.03,	0.01,	0.03,	0.00,	0.01,	0.01,	0.03,	0.00,	0.04,	0.01,	0.04,	0.00,	0.00,	0.00,	1687,	1688
72,	8086,	7782,	7818,	8378,	8862,	8199,	8488,	8471,	8286,	8311,	8786,	8780,	8514,	8942,	0.03,	0.01,	0.03,	0.00,	0.01,	0.01,	0.03,	0.00,	0.00,	0.01,	0.04,	0.00,	0.00,	0.00,	1688,	1687
73,	8089,	7774,	7823,	8375,	8854,	8189,	8493,	8479,	8293,	8319,	8787,	8790,	8513,	8960,	0.03,	0.01,	0.03,	0.00,	0.01,	0.01,	0.03,	0.00,	0.00,	0.01,	0.04,	0.00,	0.00,	0.00,	1689,	1686
74,	8095,	7789,	7832,	8387,	8862,	8204,	8496,	8479,	8291,	8315,	8783,	8778,	8509,	8960,	0.03,	0.01,	0.03,	0.00,	0.01,	0.01,	0.03,	0.00,	0.00,	0.01,	0.00,	0.00,	0.00,	0.00,	1688,	1687
75,	8089,	7783,	7827,	8385,	8859,	8195,	8489,	8469,	8286,	8315,	8789,	8779,	8503,	8948,	0.03,	0.01,	0.03,	0.00,	0.01,	0.01,	0.03,	0.00,	0.00,	0.01,	0.00,	0.01,	0.00,	0.00,	1691,	1686
76,	8083,	7770,	7824,	8371,	8850,	8177,	8481,	8482,	8290,	8322,	8795,	8792,	8511,	8962,	0.03,	0.01,	0.03,	0.00,	0.01,	0.01,	0.03,	0.00,	0.00,	0.01,	0.00,	0.01,	0.01,	0.00,	1692,	1687
77,	8093,	7788,	7838,	8388,	8861,	8199,	8492,	8470,	8288,	8314,	8785,	8784,	8506,	8950,	0.03,	0.01,	0.03,	0.00,	0.01,	0.01,	0.03,	0.00,	0.00,	0.01,	0.00,	0.01,	0.01,	0.00,	1695,	1688
78,	8088,	7781,	7842,	8391,	8856,	8182,	8490,	8475,	8294,	8317,	8787,	8791,	8499,	8959,	0.03,	0.01,	0.03,	0.00,	0.01,	0.01,	0.03,	0.00,	0.00,	0.01,	0.03,	0.01,	0.01,	0.00,	1697,	1687
79,	8081,	7779,	7837,	8380,	8856,	8190,	8484,	8480,	8294,	8324,	8789,	8788,	8496,	8955,	0.03,	0.01,	0.03,	0.00,	0.01,	0.01,	0.03,	0.00,	0.00,	0.01,	0.03,	0.00,	0.01,	0.00,	1698,	1687
80,	8086,	7791,	7837,	8378,	8863,	8206,	8491,	8468,	8289,	8319,	8786,	8783,	8490,	8947,	0.03,	0.01,	0.03,	0.00,	0.01,	0.01,	0.03,	0.00,	0.00,	0.01,	0.03,	0.00,	0.04,	0.00,	1700,	1688
81,	8086,	7777,	7840,	8377,	8856,	8180,	8492,	8478,	8291,	8315,	8791,	8795,	8491,	8967,	0.03,	0.01,	0.03,	0.00,	0.01,	0.01,	0.03,	0.00,	0.00,	0.01,	0.03,	0.00,	0.04,	0.00,	1702,	1689
82,	8091,	7780,	7845,	8384,	8855,	8191,	8496,	8474,	8284,	8314,	8787,	8788,	8489,	8953,	0.03,	0.01,	0.03,	0.00,	0.01,	0.01,	0.03,	0.00,	0.00,	0.01,	0.00,	0.00,	0.04,	0.00,	1704,	1689
83,	8091,	7781,	7844,	8381,	8847,	8196,	8494,	8479,	8287,	8323,	8786,	8788,	8487,	8955,	0.03,	0.01,	0.03,	0.00,	0.01,	0.01,	0.03,	0.00,	0.00,	0.01,	0.00,	0.03,	0.04,	0.00,	1705,	1691
84,	8087,	7778,	7844,	8379,	8845,	8193,	8492,	8478,	8296,	8319,	8790,	8788,	8486,	8960,	0.03,	0.01,	0.03,	0.00,	0.01,	0.01,	0.03,	0.00,	0.00,	0.01,	0.00,	0.03,	0.00,	0.00,	1707,	1691
85,	8089,	7792,	7853,	8386,	8853,	8198,	8495,	8467,	8290,	8310,	8788,	8777,	8482,	8946,	0.03,	0.01,	0.03,	0.00,	0.01,	0.01,	0.03,	0.00,	0.00,	0.01,	0.00,	0.03,	0.00,	0.04,	1707,	1690
86,	8091,	7784,	7852,	8377,	8846,	8190,	8494,	8483,	8294,	8320,	8788,	8789,	8484,	8958,	0.03,	0.01,	0.03,	0.00,	0.01,	0.01,	0.03,	0.00,	0.00,	0.01,	0.03,	0.03,	0.00,	0.04,	1708,	1688
87,	8085,	7787,	7852,	8383,	8849,	8201,	8489,	8473,	8293,	8322,	8790,	8789,	8479,	8950,	0.03,	0.01,	0.03,	0.00,	0.01,	0.01,	0.03,	0.00,	0.00,	0.01,	0.03,	0.01,	0.00,	0.04,	1708,	1686
88,	8082,	7787,	7856,	8382,	8857,	8190,	8485,	8467,	8291,	8320,	8792,	8781,	8477,	8952,	0.03,	0.01,	0.03,	0.00,	0.01,	0.01,	0.03,	0.00,	0.00,	0.01,	0.03,	0.01,	0.01,	0.04,	1709,	1685
89,	8095,	7779,	7862,	8375,	8856,	8179,	8494,	8478,	8296,	8319,	8786,	8784,	8480,	8956,	0.03,	0.01,	0.03,	0.00,	0.01,	0.01,	0.03,	0.00,	0.00,	0.01,	0.03,	0.01,	0.01,	0.03,	1707,	1682
90,	8089,	7789,	7864,	8383,	8854,	8189,	8489,	8469,	8293,	8311,	8780,	8782,	8475,	8941,	0.03,	0.01,	0.03,	0.00,	0.01,	0.01,	0.03,	0.00,	0.00,	0.01,	0.01,	0.01,	0.01,	0.03,	1706,	1682
91,	8084,	7786,	7861,	8378,	8843,	8176,	8478,	8476,	8292,	8317,	8791,	8789,	8481,	8964,	0.03,	0.01,	0.03,	0.00,	0.01,	0.01,	0.03,	0.00,	0.00,	0.01,	0.01,	0.03,	0.01,	0.03,	1706,	1679
92,	8095,	7793,	7867,	8380,	8851,	8188,	8491,	8470,	8290,	8324,	8789,	8782,	8478,	8961,	0.03,	0.01,	0.03,	0.00,	0.01,	0.01,	0.03,	0.00,	0.00,	0.01,	0.01,	0.03,	0.04,	0.03,	1704,	1679
93,	8082,	7790,	7866,	8382,	8857,	8187,	8489,	8472,	8291,	8322,	8788,	8784,	8475,	8940,	0.03,	0.01,	0.03,	0.00,	0.01,	0.01,	0.03,	0.00,	0.00,	0.01,	0.01,	0.03,	0.04,	0.01,	1704,	1678
94,	8079,	7784,	7865,	8377,	8854,	8178,	8486,	8488,	8291,	8321,	8792,	8797,	8477,	8946,	0.03,	0.01,	0.03,	0.00,	0.01,	0.01,	0.03,	0.00,	0.00,	0.01,	0.03,	0.03,	0.04,	0.01,	1704,	1677
95,	8085,	7792,	7870,	8387,	8860,	8192,	8489,	8473,	8287,	8318,	8785,	8780,	8468,	8947,	0.03,	0.01,	0.03,	0.00,	0.01,	0.01,	0.03,	0.00,	0.00,	0.01,	0.03,	0.01,	0.04,	0.01,	1704,	1676
96,	8080,	7772,	7868,	8377,	8856,	8176,	8486,	8475,	8296,	8321,	8791,	8785,	8470,	8969,	0.03,	0.01,	0.03,	0.00,	0.01,	0.01,	0.03,	0.00,	0.00,	0.01,	0.03,	0.01,	0.03,	0.01,	1704,	1676
97,	8085,	7785,	7872,	8378,	8856,	8186,	8497,	8473,	8289,	8318,	8789,	8790,	8465,	8964,	0.03,	0.01,	0.03,	0.00,	0.01,	0.01,	0.03,	0.00,	0.00,	0.01,	0.03,	0.01,	0.03,	0.01,	1705,	1676
98,	8090,	7794,	7872,	8383,	8851,	8194,	8493,	8472,	8284,	8319,	8787,	8778,	8464,	8936,	0.03,	0.01,	0.03,	0.00,	0.01,	0.01,	0.03,	0.00,	0.00,	0.01,	0.01,	0.01,	0.03,	0.01,	1703,	1675
99,	8078,	7777,	7860,	8375,	8852,	8174,	8484,	8482,	8292,	8324,	8794,	8777,	8471,	8948,	0.03,	0.01,	0.03,	0.00,	0.01,	0.01,	0.03,	0.00,	0.00,	0.01,	0.01,	0.00,	0.03,	0.01,	1704,	1676
100,	8078,	7798,	7863,	8386,	8855,	8188,	8492,	8464,	8284,	8314,	8790,	8781,	8466,	8951,	0.03,	0.01,	0.03,	0.00,	0.01,	0.01,	0.03,	0.00,	0.00,	0.01,	0.01,	0.00,	0.00,	0.01,	1703,	1676
101,	8094,	7784,	7870,	8381,	8847,	8185,	8495,	8477,	8288,	8319,	8790,	8795,	8472,	8953,	0.03,	0.01,	0.03,	0.00,	0.01,	0.01,	0.03,	0.00,	0.00,	0.01,	0.01,	0.00,	0.00,	0.04,	1701,	1680
102,	8091,	7778,	7866,	8378,	8853,	8185,	8498,	8484,	8296,	8322,	8788,	8788,	8467,	8950,	0.03,	0.01,	0.03,	0.00,	0.01,	0.01,	0.03,	0.00,	0.00,	0.01,	0.03,	0.00,	0.00,	0.04,	1702,	1680
103,	8089,	7790,	7874,	8383,	8853,	8191,	8485,	8470,	8297,	8314,	8789,	8784,	8467,	8949,	0.03,	0.01,	0.03,	0.00,	0.01,	0.01,	0.03,	0.00,	0.00,	0.01,	0.03,	0.01,	0.00,	0.04,	1699,	1683
104,	8092,	7770,	7874,	8368,	8849,	8174,	8486,	8479,	8297,	8323,	8794,	8792,	8475,	8977,	0.03,	0.01,	0.03,	0.00,	0.01,	0.01,	0.03,	0.00,	0.00,	0.01,	0.03,	0.01,	0.03,	0.04,	1699,	1685
105,	8089,	7782,	7873,	8378,	8856,	8187,	8500,	8474,	8286,	8322,	8789,	8784,	8469,	8968,	0.03,	0.01,	0.03,	0.00,	0.01,	0.01,	0.03,	0.00,	0.00,	0.01,	0.03,	0.01,	0.03,	0.00,	1696,	1686
106,	8089,	7786,	7874,	8381,	8849,	8181,	8482,	8482,	8291,	8317,	8796,	8794,	8473,	8951,	0.03,	0.01,	0.03,	0.00,	0.01,	0.01,	0.03,	0.00,	0.00,	0.01,	0.03,	0.01,	0.03,	0.00,	1694,	1688
107,	8085,	7774,	7865,	8369,	8852,	8173,	8485,	8481,	8296,	8321,	8796,	8787,	8468,	8948,	0.03,	0.01,	0.03,	0.00,	0.01,	0.01,	0.03,	0.00,	0.00,	0.01,	0.03,	0.01,	0.03,	0.00,	1692,	1690
108,	8086,	7790,	7871,	8379,	8853,	8187,	8491,	8469,	8284,	8317,	8789,	8780,	8464,	8950,	0.03,	0.01,	0.03,	0.00,	0.01,	0.01,	0.03,	0.00,	0.00,	0.01,	0.03,	0.01,	0.04,	0.00,	1691,	1690
109,	8084,	7787,	7879,	8378,	8842,	8173,	8484,	8485,	8290,	8316,	8796,	8795,	8474,	8982,	0.03,	0.01,	0.03,	0.00,	0.01,	0.01,	0.03,	0.00,	0.00,	0.01,	0.03,	0.01,	0.04,	0.00,	1689,	1690
110,	8084,	7786,	7875,	8380,	8850,	8182,	8497,	8472,	8291,	8313,	8796,	8782,	8475,	8972,	0.03,	0.01,	0.03,	0.00,	0.01,	0.01,	0.03,	0.00,	0.00,	0.01,	0.01,	0.01,	0.04,	0.00,	1689,	1690
111,	8098,	7787,	7875,	8379,	8852,	8187,	8490,	8467,	8287,	8314,	8793,	8780,	8472,	8943,	0.03,	0.01,	0.03,	0.00,	0.01,	0.01,	0.03,	0.00,	0.00,	0.01,	0.01,	0.03,	0.04,	0.00,	1689,	1688
112,	8096,	7781,	7875,	8378,	8852,	8181,	8481,	8482,	8291,	8320,	8792,	8792,	8472,	8934,	0.03,	0.01,	0.03,	0.00,	0.01,	0.01,	0.03,	0.00,	0.00,	0.01,	0.01,	0.03,	0.01,	0.00,	1688,	1691
113,	8086,	7790,	7876,	8385,	8855,	8190,	8488,	8468,	8290,	8313,	8789,	8789,	8474,	8942,	0.03,	0.01,	0.03,	0.00,	0.01,	0.01,	0.03,	0.00,	0.00,	0.01,	0.01,	0.03,	0.01,	0.00,	1690,	1690
114,	8091,	7782,	7871,	8379,	8850,	8183,	8485,	8475,	8290,	8313,	8791,	8789,	8479,	8987,	0.03,	0.01,	0.03,	0.00,	0.01,	0.01,	0.03,	0.00,	0.00,	0.01,	0.01,	0.03,	0.01,	0.00,	1690,	1691
115,	8098,	7785,	7872,	8380,	8856,	8191,	8486,	8473,	8286,	8315,	8792,	8786,	8471,	8980,	0.03,	0.01,	0.03,	0.00,	0.01,	0.01,	0.03,	0.00,	0.00,	0.01,	0.01,	0.03,	0.01,	0.00,	1692,	1693
116,	8093,	7785,	7874,	8383,	8853,	8194,	8489,	8465,	8288,	8315,	8795,	8795,	8466,	8936,	0.03,	0.01,	0.03,	0.00,	0.01,	0.01,	0.03,	0.00,	0.00,	0.01,	0.01,	0.03,	0.01,	0.00,	1694,	1694
117,	8091,	7776,	7871,	8377,	8854,	8184,	8485,	8475,	8294,	8321,	8790,	8791,	8469,	8918,	0.03,	0.01,	0.03,	0.00,	0.01,	0.01,	0.03,	0.00,	0.00,	0.01,	0.01,	0.03,	0.01,	0.01,	1694,	1697
118,	8089,	7785,	7873,	8383,	8863,	8188,	8488,	8469,	8285,	8318,	8787,	8779,	8465,	8935,	0.03,	0.01,	0.03,	0.00,	0.01,	0.01,	0.03,	0.00,	0.00,	0.01,	0.00,	0.03,	0.01,	0.01,	1696,	1696
119,	8086,	7777,	7871,	8380,	8850,	8179,	8487,	8478,	8289,	8321,	8795,	8796,	8473,	8998,	0.03,	0.01,	0.03,	0.00,	0.01,	0.01,	0.03,	0.00,	0.00,	0.01,	0.00,	0.04,	0.01,	0.01,	1697,	1697
120,	8093,	7785,	7875,	8384,	8855,	8193,	8492,	8474,	8294,	8320,	8786,	8790,	8473,	9003,	0.03,	0.01,	0.03,	0.00,	0.01,	0.01,	0.03,	0.00,	0.00,	0.01,	0.00,	0.04,	0.00,	0.01,	1699,	1694
121,	8092,	7790,	7875,	8388,	8863,	8192,	8493,	8468,	8292,	8321,	8787,	8783,	8465,	8936,	0.03,	0.01,	0.03,	0.00,	0.01,	0.01,	0.03,	0.00,	0.00,	0.01,	0.00,	0.04,	0.00,	0.01,	1700,	1693
122,	8089,	7776,	7869,	8380,	8849,	8168,	8480,	8487,	8296,	8330,	8798,	8797,	8470,	8904,	0.03,	0.01,	0.03,	0.00,	0.01,	0.01,	0.03,	0.00,	0.00,	0.01,	0.00,	0.04,	0.00,	0.01,	1700,	1687
123,	8094,	7790,	7877,	8387,	8851,	8186,	8485,	8471,	8293,	8323,	8787,	8781,	8465,	8924,	0.03,	0.01,	0.03,	0.00,	0.01,	0.01,	0.03,	0.00,	0.00,	0.01,	0.00,	0.01,	0.00,	0.01,	1702,	1686
124,	8090,	7784,	7874,	8382,	8853,	8182,	8492,	8470,	8295,	8321,	8790,	8787,	8468,	8985,	0.03,	0.01,	0.03,	0.00,	0.01,	0.01,	0.03,	0.00,	0.00,	0.01,	0.00,	0.01,	0.00,	0.01,	1701,	1684
125,	8089,	7777,	7872,	8378,	8854,	8181,	8487,	8480,	8295,	8323,	8797,	8798,	8470,	8993,	0.03,	0.01,	0.03,	0.00,	0.01,	0.01,	0.03,	0.00,	0.00,	0.01,	0.00,	0.01,	0.00,	0.04,	1700,	1684
126,	8091,	7787,	7878,	8386,	8856,	8195,	8490,	8460,	8289,	8318,	8786,	8782,	8456,	8940,	0.03,	0.01,	0.03,	0.00,	0.01,	0.01,	0.03,	0.00,	0.00,	0.01,	0.03,	0.01,	0.00,	0.04,	1699,	1683
127,	8084,	7782,	7877,	8379,	8851,	8182,	8482,	8472,	8300,	8322,	8788,	8788,	8465,	8927,	0.03,	0.01,	0.03,	0.00,	0.01,	0.01,	0.03,	0.00,	0.00,	0.01,	0.03,	0.03,	0.00,	0.04,	1699,	1683
0,	8079,	7779,	7869,	8386,	8857,	8187,	8481,	8472,	8288,	8322,	8791,	8786,	8460,	8964,	0.01,	0.01,	0.03,	0.00,	0.01,	0.01,	0.03,	0.00,	0.00,	0.01,	0.03,	0.03,	0.00,	0.04,	1698,	1684
1,	8086,	7782,	7871,	8375,	8857,	8174,	8480,	8481,	8295,	8320,	8789,	8788,	8462,	8992,	0.01,	0.00,	0.03,	0.00,	0.01,	0.01,	0.03,	0.00,	0.00,	0.01,	0.03,	0.03,	0.00,	0.04,	1698,	1681
2,	8085,	7787,	7877,	8371,	8862,	8182,	8484,	8466,	8298,	8316,	8785,	8782,	8463,	8956,	0.01,	0.00,	0.00,	0.00,	0.01,	0.01,	0.03,	0.00,	0.00,	0.01,	0.03,	0.03,	0.00,	0.04,	1696,	1683
3,	8084,	7774,	7877,	8376,	8852,	8179,	8489,	8470,	8300,	8324,	8793,	8789,	8465,	8930,	0.01,	0.00,	0.00,	0.01,	0.01,	0.01,	0.03,	0.00,	0.00,	0.01,	0.03,	0.03,	0.00,	0.04,	1699,	1682
4,	8090,	7787,	7884,	8385,	8858,	8187,	8489,	8465,	8296,	8325,	8790,	8788,	8461,	8921,	0.01,	0.00,	0.00,	0.01,	0.01,	0.01,	0.03,	0.00,	0.00,	0.01,	0.03,	0.03,	0.00,	0.04,	1697,	1682
5,	8091,	7787,	7875,	8373,	8860,	8183,	8486,	8464,	8291,	8320,	8785,	8791,	8460,	8958,	0.01,	0.00,	0.00,	0.01,	0.01,	0.03,	0.03,	0.00,	0.00,	0.01,	0.03,	0.03,	0.00,	0.04,	1698,	1682
6,	8083,	7777,	7867,	8374,	8853,	8178,	8491,	8480,	8295,	8322,	8796,	8788,	8464,	9000,	0.01,	0.00,	0.00,	0.01,	0.01,	0.03,	0.04,	0.00,	0.00,	0.01,	0.03,	0.03,	0.00,	0.04,	1699,	1679
7,	8083,	7789,	7876,	8391,	8857,	8189,	8493,	8467,	8290,	8319,	8794,	8781,	8464,	8957,	0.01,	0.00,	0.00,	0.01,	0.01,	0.03,	0.04,	0.01,	0.00,	0.01,	0.03,	0.03,	0.00,	0.04,	1699,	1679
8,	8088,	7777,	7874,	8377,	8852,	8174,	8483,	8471,	8292,	8322,	8789,	8794,	8470,	8924,	0.01,	0.00,	0.00,	0.01,	0.01,	0.03,	0.04,	0.01,	0.04,	0.01,	0.03,	0.03,	0.00,	0.04,	1700,	1678
9,	8092,	7783,	7868,	8381,	8855,	8181,	8491,	8471,	8292,	8324,	8789,	8781,	8470,	8936,	0.01,	0.00,	0.00,	0.01,	0.01,	0.03,	0.04,	0.01,	0.04,	0.04,	0.03,	0.03,	0.00,	0.04,	1700,	1678
10,	8091,	7795,	7866,	8393,	8858,	8187,	8491,	8467,	8291,	8323,	8791,	8779,	8470,	8958,	0.01,	0.00,	0.00,	0.01,	0.01,	0.03,	0.04,	0.01,	0.04,	0.04,	0.04,	0.03,	0.00,	0.04,	1701,	1677
11,	8088,	7778,	7862,	8377,	8854,	8179,	8486,	8475,	8296,	8331,	8792,	8796,	8476,	8971,	0.01,	0.00,	0.00,	0.01,	0.01,	0.03,	0.04,	0.01,	0.04,	0.04,	0.04,	0.03,	0.00,	0.04,	1702,	1679
12,	8090,	7791,	7866,	8379,	8856,	8193,	8491,	8460,	8290,	8325,	8789,	8780,	8474,	8946,	0.01,	0.00,	0.00,	0.01,	0.01,	0.03,	0.04,	0.01,	0.04,	0.04,	0.04,	0.03,	0.04,	0.04,	1702,	1679
13,	8087,	7788,	7870,	8384,	8851,	8179,	8487,	8467,	8293,	8322,	8791,	8781,	8477,	8942,	0.01,	0.00,	0.00,	0.01,	0.01,	0.03,	0.04,	0.01,	0.04,	0.04,	0.04,	0.03,	0.04,	0.04,	1700,	1682
14,	8087,	7778,	7864,	8385,	8852,	8179,	8490,	8469,	8295,	8323,	8787,	8791,	8476,	8955,	0.01,	0.00,	0.00,	0.01,	0.01,	0.03,	0.04,	0.01,	0.04,	0.04,	0.03,	0.03,	0.04,	0.04,	1701,	1683
15,	8090,	7785,	7860,	8388,	8856,	8192,	8483,	8460,	8292,	8318,	8784,	8785,	8473,	8948,	0.01,	0.00,	0.00,	0.01,	0.01,	0.03,	0.04,	0.01,	0.04,	0.04,	0.03,	0.04,	0.04,	0.04,	1698,	1686
16,	8088,	7780,	7863,	8378,	8859,	8179,	8480,	8473,	8297,	8320,	8790,	8787,	8474,	8946,	0.01,	0.00,	0.00,	0.01,	0.01,	0.03,	0.04,	0.01,	0.04,	0.04,	0.03,	0.04,	0.04,	0.04,	1698,	1688
17,	8092,	7795,	7868,	8381,	8858,	8189,	8498,	8462,	8297,	8319,	8787,	8784,	8466,	8941,	0.01,	0.00,	0.00,	0.01,	0.01,	0.03,	0.04,	0.01,	0.04,	0.04,	0.03,	0.04,	0.04,	0.04,	1696,	1687
18,	8096,	7786,	7875,	8386,	8848,	8184,	8495,	8465,	8297,	8321,	8791,	8791,	8469,	8958,	0.01,	0.00,	0.00,	0.01,	0.01,	0.03,	0.04,	0.01,	0.04,	0.04,	0.03,	0.04,	0.04,	0.04,	1695,	1689
19,	8085,	7779,	7880,	8386,	8853,	8180,	8494,	8467,	8289,	8320,	8791,	8785,	8463,	8960,	0.01,	0.00,	0.00,	0.01,	0.01,	0.03,	0.04,	0.01,	0.04,	0.04,	0.03,	0.04,	0.04,	0.04,	1694,	1689
20,	8082,	7794,	7880,	8380,	8853,	8189,	8493,	8456,	8290,	8317,	8784,	8777,	8452,	8944,	0.01,	0.00,	0.00,	0.01,	0.01,	0.03,	0.04,	0.01,	0.04,	0.04,	0.03,	0.04,	0.04,	0.04,	1693,	1690
21,	8090,	7782,	7888,	8371,	8847,	8172,	8485,	8470,	8299,	8325,	8792,	8793,	8459,	8963,	0.01,	0.00,	0.00,	0.01,	0.01,	0.03,	0.04,	0.01,	0.04,	0.04,	0.03,	0.04,	0.04,	0.04,	1692,	1690
22,	8083,	7784,	7898,	8384,	8854,	8177,	8496,	8464,	8286,	8323,	8792,	8782,	8450,	8957,	0.01,	0.00,	0.00,	0.01,	0.01,	0.03,	0.04,	0.01,	0.04,	0.04,	0.03,	0.04,	0.04,	0.04,	1692,	1691
23,	8080,	7784,	7898,	8380,	8848,	8175,	8486,	8462,	8291,	8322,	8786,	8781,	8444,	8943,	0.01,	0.00,	0.00,	0.01,	0.01,	0.03,	0.04,	0.01,	0.04,	0.04,	0.03,	0.04,	0.04,	0.04,	1692,	1691
24,	8097,	7788,	7904,	8373,	8848,	8178,	8479,	8468,	8297,	8325,	8783,	8789,	8441,	8950,	0.01,	0.00,	0.00,	0.01,	0.01,	0.03,	0.04,	0.01,	0.04,	0.04,	0.03,	0.04,	0.04,	0.04,	1691,	1694
25,	8094,	7793,	7907,	8384,	8855,	8190,	8493,	8460,	8286,	8318,	8785,	8785,	8434,	8944,	0.01,	0.00,	0.00,	0.01,	0.01,	0.03,	0.04,	0.01,	0.04,	0.04,	0.03,	0.04,	0.04,	0.04,	1693,	1695
26,	8082,	7777,	7906,	8380,	8853,	8171,	8492,	8467,	8292,	8320,	8794,	8790,	8436,	8957,	0.01,	0.00,	0.00,	0.01,	0.01,	0.03,	0.04,	0.01,	0.04,	0.04,	0.03,	0.04,	0.04,	0.04,	1694,	1694
27,	8085,	7786,	7913,	8384,	8859,	8180,	8489,	8460,	8294,	8320,	8787,	8781,	8426,	8943,	0.01,	0.00,	0.00,	0.01,	0.01,	0.03,	0.04,	0.01,	0.04,	0.04,	0.03,	0.04,	0.04,	0.04,	1696,	1695
28,	8086,	7784,	7914,	8380,	8857,	8186,	8485,	8463,	8296,	8324,	8787,	8790,	8427,	8940,	0.01,	0.00,	0.00,	0.01,	0.01,	0.03,	0.04,	0.01,	0.04,	0.04,	0.03,	0.04,	0.04,	0.04,	1697,	1693
29,	8092,	7790,	7917,	8380,	8861,	8187,	8491,	8470,	8293,	8324,	8779,	8783,	8423,	8978,	0.01,	0.00,	0.00,	0.01,	0.01,	0.03,	0.04,	0.01,	0.04,	0.04,	0.03,	0.04,	0.04,	0.04,	1699,	1692
30,	8089,	7786,	7916,	8384,	8855,	8188,	8489,	8459,	8297,	8323,	8784,	8774,	8420,	8957,	0.01,	0.00,	0.00,	0.01,	0.01,	0.03,	0.04,	0.01,	0.04,	0.04,	0.03,	0.04,	0.04,	0.04,	1701,	1687
31,	8087,	7767,	7922,	8374,	8839,	8158,	8479,	8480,	8310,	8328,	8801,	8796,	8431,	8919,	0.01,	0.00,	0.00,	0.01,	0.01,	0.03,	0.04,	0.01,	0.04,	0.04,	0.03,	0.04,	0.04,	0.04,	1700,	1685
32,	8100,	7824,	7931,	8400,	8864,	8201,	8509,	8456,	8281,	8311,	8756,	8753,	8400,	8917,	0.01,	0.00,	0.00,	0.01,	0.01,	0.03,	0.04,	0.01,	0.04,	0.04,	0.03,	0.04,	0.04,	0.04,	1700,	1681
33,	8083,	7778,	7917,	8384,	8852,	8186,	8491,	8461,	8296,	8333,	8776,	8774,	8413,	8939,	0.01,	0.00,	0.00,	0.01,	0.01,	0.03,	0.04,	0.01,	0.04,	0.04,	0.03,	0.04,	0.04,	0.04,	1699,	1680
34,	8090,	7742,	7926,	8362,	8844,	8119,	8475,	8505,	8308,	8343,	8799,	8797,	8429,	8950,	0.01,	0.00,	0.00,	0.01,	0.01,	0.03,	0.04,	0.01,	0.04,	0.04,	0.03,	0.04,	0.04,	0.04,	1699,	1678
35,	8098,	7814,	7941,	8396,	8868,	8154,	8508,	8476,	8276,	8315,	8756,	8742,	8391,	8921,	0.01,	0.00,	0.00,	0.01,	0.01,	0.03,	0.04,	0.01,	0.04,	0.04,	0.03,	0.04,	0.04,	0.04,	1699,	1679
36,	8075,	7769,	7927,	8376,	8842,	8138,	8485,	8494,	8306,	8344,	8787,	8788,	8416,	8983,	0.01,	0.00,	0.00,	0.01,	0.01,	0.03,	0.04,	0.01,	0.04,	0.04,	0.03,	0.04,	0.04,	0.04,	1699,	1679
37,	8089,	7764,	7926,	8370,	8850,	8126,	8477,	8510,	8308,	8352,	8790,	8793,	8425,	9047,	0.01,	0.00,	0.00,	0.01,	0.01,	0.03,	0.04,	0.01,	0.04,	0.04,	0.03,	0.04,	0.04,	0.04,	1699,	1680
38,	8087,	7791,	7931,	8382,	8866,	8153,	8488,	8483,	8294,	8335,	8772,	8762,	8409,	8960,	0.01,	0.00,	0.00,	0.01,	0.01,	0.03,	0.04,	0.01,	0.04,	0.04,	0.03,	0.04,	0.04,	0.04,	1700,	1682
39,	8081,	7764,	7933,	8365,	8852,	8134,	8487,	8498,	8309,	8343,	8788,	8791,	8416,	8898,	0.01,	0.00,	0.00,	0.01,	0.01,	0.03,	0.04,	0.01,	0.04,	0.04,	0.03,	0.04,	0.04,	0.04,	1700,	1681
40,	8096,	7781,	7932,	8378,	8858,	8148,	8499,	8492,	8295,	8335,	8779,	8781,	8410,	8920,	0.01,	0.00,	0.00,	0.01,	0.01,	0.03,	0.04,	0.01,	0.04,	0.04,	0.03,	0.04,	0.04,	0.04,	1700,	1683
41,	8088,	7764,	7926,	8376,	8854,	8145,	8479,	8491,	8301,	8338,	8788,	8785,	8419,	8992,	0.01,	0.00,	0.00,	0.01,	0.01,	0.03,	0.04,	0.01,	0.04,	0.04,	0.03,	0.04,	0.04,	0.04,	1702,	1681
42,	8089,	7768,	7926,	8370,	8862,	8132,	8483,	8496,	8306,	8337,	8782,	8779,	8412,	9027,	0.01,	0.00,	0.00,	0.01,	0.01,	0.03,	0.04,	0.01,	0.04,	0.04,	0.03,	0.04,	0.04,	0.04,	1703,	1683
43,	8089,	7787,	7928,	8382,	8864,	8139,	8492,	8489,	8297,	8333,	8777,	8769,	8405,	8965,	0.01,	0.00,	0.00,	0.01,	0.01,	0.03,	0.04,	0.01,	0.04,	0.04,	0.03,	0.04,	0.04,	0.04,	1705,	1684
44,	8086,	7764,	7925,	8376,	8854,	8130,	8481,	8500,	8302,	8345,	8793,	8785,	8422,	8908,	0.01,	0.00,	0.00,	0.01,	0.01,	0.03,	0.04,	0.01,	0.04,	0.04,	0.03,	0.04,	0.04,	0.04,	1706,	1681
45,	8094,	7778,	7921,	8379,	8862,	8145,	8494,	8494,	8297,	8337,	8783,	8770,	8410,	8910,	0.01,	0.00,	0.00,	0.01,	0.01,	0.03,	0.04,	0.01,	0.04,	0.04,	0.03,	0.04,	0.04,	0.04,	1709,	1675
46,	8091,	7775,	7918,	8377,	8855,	8141,	8491,	8497,	8299,	8335,	8783,	8774,	8410,	8983,	0.01,	0.00,	0.00,	0.01,	0.01,	0.03,	0.04,	0.01,	0.04,	0.04,	0.03,	0.04,	0.04,	0.04,	1711,	1669
47,	8085,	7763,	7917,	8370,	8852,	8122,	8485,	8507,	8304,	8347,	8788,	8792,	8431,	9054,	0.01,	0.00,	0.00,	0.01,	0.01,	0.03,	0.04,	0.01,	0.04,	0.04,	0.03,	0.04,	0.04,	0.04,	1711,	1661
48,	8090,	7792,	7919,	8387,	8858,	8144,	8500,	8491,	8294,	8333,	8780,	8774,	8427,	8986,	0.01,	0.00,	0.00,	0.01,	0.01,	0.03,	0.04,	0.01,	0.04,	0.04,	0.03,	0.04,	0.04,	0.04,	1704,	1642
49,	8092,	7769,	7918,	8373,	8848,	8139,	8490,	8500,	8302,	8337,	8787,	8778,	8431,	8888,	0.01,	0.00,	0.00,	0.01,	0.01,	0.03,	0.04,	0.01,	0.04,	0.04,	0.03,	0.04,	0.04,	0.04,	1703,	1634
50,	8089,	7759,	7916,	8368,	8860,	8135,	8481,	8493,	8303,	8347,	8787,	8786,	8436,	8887,	0.01,	0.00,	0.00,	0.01,	0.01,	0.03,	0.04,	0.01,	0.04,	0.04,	0.03,	0.04,	0.04,	0.04,	1697,	1628
51,	8097,	7798,	7913,	8395,	8871,	8150,	8495,	8487,	8296,	8326,	8782,	8771,	8428,	8979,	0.01,	0.00,	0.00,	0.01,	0.01,	0.03,	0.04,	0.01,	0.04,	0.04,	0.03,	0.04,	0.04,	0.04,	1689,	1618
52,	8075,	7764,	7901,	8369,	8850,	8140,	8482,	8502,	8309,	8327,	8791,	8778,	8434,	9054,	0.01,	0.00,	0.00,	0.01,	0.01,	0.03,	0.04,	0.01,	0.04,	0.04,	0.03,	0.04,	0.04,	0.04,	1681,	1616
53,	8073,	7755,	7926,	8360,	8854,	8140,	8466,	8486,	8295,	8316,	8786,	8778,	8438,	8987,	0.01,	0.00,	0.00,	0.01,	0.01,	0.03,	0.04,	0.01,	0.04,	0.04,	0.03,	0.04,	0.04,	0.04,	1675,	1613
54,	8096,	7768,	7926,	8374,	8874,	8134,	8481,	8494,	8288,	8297,	8782,	8775,	8440,	8903,	0.01,	0.00,	0.00,	0.01,	0.01,	0.03,	0.04,	0.01,	0.04,	0.04,	0.03,	0.04,	0.04,	0.04,	1667,	1615
55,	8081,	7748,	7893,	8359,	8870,	8138,	8489,	8495,	8304,	8306,	8795,	8791,	8446,	8909,	0.01,	0.00,	0.00,	0.01,	0.01,	0.03,	0.04,	0.01,	0.04,	0.04,	0.03,	0.04,	0.04,	0.04,	1659,	1619
56,	8093,	7786,	7915,	8377,	8863,	8147,	8470,	8479,	8287,	8296,	8788,	8800,	8448,	8963,	0.01,	0.00,	0.00,	0.01,	0.01,	0.03,	0.04,	0.01,	0.04,	0.04,	0.03,	0.04,	0.04,	0.04,	1650,	1625
57,	8079,	7771,	7905,	8369,	8867,	8125,	8472,	8499,	8298,	8316,	8785,	8790,	8454,	9025,	0.01,	0.00,	0.00,	0.01,	0.01,	0.03,	0.04,	0.01,	0.04,	0.04,	0.03,	0.04,	0.04,	0.04,	1643,	1632
58,	8086,	7762,	7890,	8359,	8876,	8137,	8491,	8492,	8306,	8333,	8800,	8798,	8465,	9006,	0.01,	0.00,	0.00,	0.01,	0.01,	0.03,	0.04,	0.01,	0.04,	0.04,	0.03,	0.04,	0.04,	0.04,	1635,	1639
59,	8114,	7786,	7897,	8374,	8866,	8140,	8484,	8487,	8289,	8314,	8798,	8814,	8475,	8936,	0.01,	0.00,	0.00,	0.01,	0.01,	0.03,	0.04,	0.01,	0.04,	0.04,	0.03,	0.04,	0.04,	0.04,	1628,	1649
60,	8066,	7749,	7854,	8364,	8857,	8134,	8493,	8496,	8302,	8327,	8790,	8789,	8469,	8917,	0.01,	0.00,	0.00,	0.01,	0.01,	0.03,	0.04,	0.01,	0.04,	0.04,	0.03,	0.04,	0.04,	0.04,	1623,	1654
61,	8098,	7785,	7893,	8390,	8858,	8151,	8493,	8482,	8295,	8329,	8800,	8811,	8470,	8964,	0.01,	0.00,	0.00,	0.01,	0.01,	0.03,	0.04,	0.01,	0.04,	0.04,	0.03,	0.04,	0.04,	0.04,	1616,	1663
62,	8114,	7787,	7897,	8388,	8854,	8140,	8488,	8493,	8294,	8323,	8801,	8819,	8480,	9023,	0.01,	0.00,	0.00,	0.01,	0.01,	0.03,	0.04,	0.01,	0.04,	0.04,	0.03,	0.04,	0.04,	0.04,	1611,	1671
63,	8085,	7742,	7841,	8362,	8855,	8147,	8505,	8485,	8301,	8337,	8792,	8792,	8471,	9013,	0.01,	0.00,	0.00,	0.01,	0.01,	0.03,	0.04,	0.01,	0.04,	0.04,	0.03,	0.04,	0.04,	0.04,	1604,	1680
64,	8117,	7775,	7895,	8383,	8839,	8151,	8485,	8483,	8292,	8342,	8800,	8832,	8474,	8951,	0.01,	0.00,	0.00,	0.01,	0.01,	0.03,	0.04,	0.01,	0.04,	0.04,	0.03,	0.04,	0.04,	0.04,	1600,	1688
65,	8090,	7786,	7886,	8390,	8847,	8145,	8484,	8501,	8305,	8344,	8788,	8800,	8471,	8918,	0.01,	0.00,	0.00,	0.01,	0.01,	0.03,	0.04,	0.01,	0.04,	0.04,	0.03,	0.04,	0.04,	0.04,	1596,	1697
66,	8096,	7772,	7867,	8383,	8853,	8154,	8502,	8480,	8294,	8350,	8788,	8801,	8466,	8962,	0.01,	0.00,	0.03,	0.01,	0.01,	0.03,	0.04,	0.01,	0.04,	0.04,	0.03,	0.04,	0.04,	0.04,	1594,	1702
67,	8115,	7775,	7889,	8388,	8829,	8141,	8481,	8495,	8289,	8357,	8800,	8842,	8475,	9017,	0.01,	0.00,	0.03,	0.01,	0.01,	0.03,	0.04,	0.01,	0.04,	0.04,	0.03,	0.04,	0.04,	0.04,	1592,	1710
68,	8085,	7784,	7864,	8389,	8850,	8154,	8486,	8489,	8303,	8348,	8778,	8788,	8454,	8980,	0.01,	0.00,	0.03,	0.01,	0.03,	0.03,	0.04,	0.01,	0.04,	0.04,	0.03,	0.04,	0.04,	0.04,	1592,	1717
69,	8097,	7781,	7898,	8378,	8848,	8150,	8493,	8458,	8286,	8342,	8785,	8809,	8441,	8950,	0.01,	0.00,	0.03,	0.01,	0.03,	0.01,	0.04,	0.01,	0.04,	0.04,	0.03,	0.04,	0.04,	0.04,	1593,	1724
70,	8095,	7765,	7922,	8379,	8816,	8132,	8473,	8493,	8296,	8343,	8796,	8803,	8452,	8919,	0.01,	0.00,	0.03,	0.01,	0.03,	0.01,	0.01,	0.01,	0.04,	0.04,	0.03,	0.04,	0.04,	0.04,	1594,	1733
71,	8098,	7789,	7843,	8390,	8876,	8156,	8513,	8473,	8294,	8346,	8764,	8778,	8426,	8913,	0.01,	0.00,	0.03,	0.01,	0.03,	0.01,	0.01,	0.01,	0.04,	0.04,	0.03,	0.04,	0.04,	0.04,	1599,	1737
72,	8090,	7810,	7816,	8377,	8980,	8158,	8531,	8443,	8269,	8336,	8763,	8803,	8412,	9009,	0.01,	0.00,	0.03,	0.01,	0.03,	0.01,	0.01,	0.01,	0.04,	0.04,	0.03,	0.04,	0.04,	0.04,	1603,	1741
73,	8062,	7768,	7982,	8372,	9053,	8141,	8488,	8480,	8300,	8326,	8784,	8696,	8441,	9026,	0.01,	0.00,	0.03,	0.01,	0.03,	0.01,	0.01,	0.01,	0.04,	0.00,	0.03,	0.04,	0.04,	0.04,	1611,	1744
74,	8058,	7763,	7987,	8404,	9136,	8115,	8485,	8473,	8306,	8345,	8774,	8729,	8423,	8915,	0.01,	0.00,	0.03,	0.01,	0.03,	0.01,	0.01,	0.01,	0.04,	0.00,	0.01,	0.04,	0.04,	0.04,	1619,	1742
75,	8060,	7802,	7816,	8387,	9235,	8112,	8468,	8466,	8275,	8321,	8771,	8851,	8399,	8848,	0.01,	0.00,	0.03,	0.01,	0.03,	0.01,	0.01,	0.01,	0.04,	0.00,	0.01,	0.00,	0.04,	0.04,	1630,	1743
76,	8086,	7813,	7825,	8306,	9306,	8130,	8483,	8482,	8280,	8294,	8785,	8773,	8413,	8899,	0.01,	0.00,	0.03,	0.01,	0.03,	0.01,	0.01,	0.01,	0.04,	0.00,	0.01,	0.00,	0.04,	0.04,	1640,	1742
77,	8095,	7829,	7828,	8311,	9353,	8094,	8497,	8476,	8298,	8336,	8788,	8767,	8420,	8972,	0.01,	0.00,	0.03,	0.01,	0.03,	0.01,	0.01,	0.01,	0.04,	0.00,	0.01,	0.00,	0.04,	0.19,	1653,	1740
78,	8080,	7814,	7864,	8364,	9381,	8084,	8445,	8468,	8296,	8348,	8787,	8814,	8425,	8963,	0.01,	0.00,	0.03,	0.01,	0.03,	0.01,	0.01,	0.01,	0.04,	0.00,	0.01,	0.00,	0.04,	0.19,	1667,	1735
79,	8079,	7775,	7953,	8362,	9331,	8097,	8460,	8466,	8285,	8322,	8787,	8769,	8413,	8916,	0.01,	0.00,	0.03,	0.01,	0.03,	0.01,	0.01,	0.01,	0.04,	0.00,	0.01,	0.00,	0.04,	0.19,	1682,	1731
80,	8088,	7783,	7915,	8369,	9229,	8092,	8448,	8474,	8290,	8331,	8791,	8781,	8408,	8886,	0.01,	0.00,	0.03,	0.01,	0.03,	0.01,	0.01,	0.01,	0.04,	0.00,	0.01,	0.00,	0.00,	0.19,	1697,	1723
81,	8074,	7783,	7935,	8373,	9144,	8105,	8440,	8466,	8293,	8337,	8781,	8782,	8408,	8899,	0.01,	0.00,	0.03,	0.01,	0.03,	0.01,	0.01,	0.01,	0.04,	0.00,	0.01,	0.00,	0.00,	0.18,	1711,	1716
82,	8076,	7755,	7965,	8387,	9018,	8116,	8481,	8469,	8291,	8330,	8787,	8763,	8402,	8941,	0.01,	0.00,	0.03,	0.01,	0.03,	0.01,	0.01,	0.01,	0.04,	0.00,	0.01,	0.00,	0.00,	0.18,	1728,	1702
83,	8107,	7777,	7947,	8416,	8932,	8131,	8452,	8460,	8287,	8326,	8794,	8771,	8408,	8942,	0.01,	0.00,	0.03,	0.01,	0.03,	0.01,	0.01,	0.01,	0.04,	0.00,	0.01,	0.00,	0.00,	0.18,	1738,	1693
84,	8071,	7781,	7956,	8367,	8966,	8127,	8467,	8452,	8291,	8315,	8769,	8755,	8406,	8906,	0.01,	0.00,	0.03,	0.01,	0.03,	0.01,	0.01,	0.01,	0.04,	0.00,	0.01,	0.00,	0.04,	0.18,	1750,	1680
85,	8090,	7780,	7931,	8360,	9053,	8115,	8498,	8478,	8309,	8337,	8787,	8783,	8411,	8913,	0.01,	0.00,	0.03,	0.01,	0.03,	0.01,	0.01,	0.01,	0.04,	0.00,	0.01,	0.00,	0.04,	0.21,	1761,	1669
86,	8130,	7821,	7895,	8387,	9091,	8135,	8481,	8461,	8302,	8357,	8802,	8793,	8415,	8904,	0.01,	0.00,	0.03,	0.01,	0.03,	0.01,	0.01,	0.01,	0.04,	0.00,	0.01,	0.00,	0.04,	0.21,	1774,	1667
87,	8088,	7811,	7873,	8335,	8894,	8161,	8501,	8450,	8292,	8330,	8775,	8750,	8405,	8923,	0.01,	0.00,	0.03,	0.01,	0.03,	0.01,	0.01,	0.01,	0.04,	0.00,	0.01,	0.01,	0.04,	0.21,	1785,	1660
88,	8122,	7812,	7863,	8361,	8572,	8196,	8516,	8467,	8279,	8300,	8781,	8762,	8397,	8959,	0.01,	0.00,	0.03,	0.01,	0.03,	0.01,	0.01,	0.01,	0.04,	0.00,	0.01,	0.01,	0.00,	0.21,	1793,	1658
89,	8125,	7775,	7841,	8413,	8433,	8193,	8501,	8471,	8288,	8322,	8799,	8773,	8403,	8921,	0.01,	0.00,	0.03,	0.01,	0.03,	0.01,	0.01,	0.01,	0.04,	0.00,	0.01,	0.01,	0.00,	0.19,	1796,	1651
90,	8098,	7738,	7905,	8406,	8397,	8176,	8498,	8471,	8294,	8320,	8781,	8762,	8415,	8918,	0.01,	0.00,	0.03,	0.01,	0.03,	0.01,	0.01,	0.01,	0.04,	0.00,	0.03,	0.01,	0.00,	0.19,	1797,	1645
91,	8138,	7773,	7972,	8447,	8253,	8203,	8501,	8470,	8270,	8274,	8765,	8753,	8415,	8921,	0.01,	0.00,	0.03,	0.01,	0.03,	0.01,	0.01,	0.01,	0.04,	0.00,	0.03,	0.01,	0.00,	0.19,	1794,	1639
92,	8114,	7730,	7918,	8441,	8173,	8186,	8482,	8489,	8299,	8309,	8788,	8747,	8433,	8916,	0.01,	0.00,	0.03,	0.01,	0.03,	0.01,	0.01,	0.01,	0.04,	0.00,	0.03,	0.01,	0.03,	0.19,	1789,	1635
93,	8117,	7731,	7919,	8412,	8289,	8168,	8482,	8480,	8302,	8333,	8797,	8786,	8435,	8936,	0.01,	0.00,	0.03,	0.01,	0.03,	0.01,	0.01,	0.01,	0.04,	0.00,	0.03,	0.01,	0.03,	0.21,	1785,	1631
94,	8123,	7752,	7982,	8419,	8409,	8181,	8454,	8468,	8277,	8300,	8776,	8754,	8439,	8921,	0.01,	0.00,	0.03,	0.01,	0.03,	0.01,	0.01,	0.01,	0.04,	0.00,	0.03,	0.01,	0.03,	0.21,	1776,	1629
95,	8094,	7737,	8054,	8383,	8526,	8132,	8452,	8484,	8303,	8324,	8780,	8660,	8461,	8924,	0.01,	0.00,	0.03,	0.01,	0.03,	0.01,	0.01,	0.01,	0.04,	0.00,	0.03,	0.00,	0.03,	0.21,	1767,	1626
96,	8116,	7822,	7942,	8379,	8704,	8124,	8518,	8470,	8290,	8330,	8804,	8758,	8427,	8932,	0.01,	0.00,	0.03,	0.01,	0.03,	0.01,	0.01,	0.01,	0.04,	0.00,	0.03,	0.00,	0.03,	0.21,	1759,	1624
97,	8108,	7816,	7812,	8383,	8796,	8140,	8476,	8473,	8278,	8276,	8802,	8828,	8423,	8922,	0.01,	0.00,	0.03,	0.01,	0.03,	0.01,	0.01,	0.01,	0.04,	0.00,	0.03,	0.00,	0.03,	0.18,	1752,	1626
98,	8112,	7779,	7953,	8376,	8818,	8082,	8499,	8476,	8296,	8276,	8786,	8756,	8450,	8940,	0.01,	0.00,	0.03,	0.01,	0.03,	0.01,	0.01,	0.01,	0.04,	0.00,	0.04,	0.00,	0.03,	0.18,	1745,	1627
99,	8115,	7822,	7963,	8388,	8826,	8081,	8524,	8470,	8285,	8295,	8793,	8775,	8440,	8943,	0.01,	0.00,	0.03,	0.01,	0.03,	0.01,	0.01,	0.01,	0.04,	0.00,	0.04,	0.00,	0.03,	0.18,	1734,	1632
100,	8084,	7780,	7892,	8350,	8808,	8108,	8441,	8490,	8280,	8282,	8800,	8803,	8450,	8922,	0.01,	0.00,	0.03,	0.01,	0.03,	0.01,	0.01,	0.01,	0.04,	0.00,	0.04,	0.00,	0.01,	0.18,	1723,	1639
101,	8108,	7786,	7938,	8359,	8829,	8105,	8500,	8472,	8289,	8294,	8793,	8810,	8461,	8926,	0.01,	0.00,	0.03,	0.01,	0.03,	0.01,	0.01,	0.01,	0.04,	0.00,	0.04,	0.00,	0.01,	0.18,	1711,	1651
102,	8117,	7817,	7912,	8393,	8844,	8127,	8495,	8469,	8285,	8288,	8793,	8817,	8467,	8944,	0.01,	0.00,	0.03,	0.01,	0.03,	0.01,	0.01,	0.01,	0.04,	0.00,	0.04,	0.00,	0.01,	0.18,	1699,	1664
103,	8088,	7775,	7855,	8363,	8837,	8123,	8463,	8492,	8284,	8299,	8786,	8800,	8466,	8951,	0.01,	0.00,	0.03,	0.01,	0.03,	0.01,	0.01,	0.01,	0.04,	0.00,	0.04,	0.04,	0.01,	0.18,	1681,	1689
104,	8097,	7797,	7852,	8371,	8843,	8122,	8506,	8477,	8290,	8336,	8774,	8806,	8459,	8935,	0.01,	0.00,	0.03,	0.01,	0.03,	0.01,	0.01,	0.01,	0.04,	0.00,	0.04,	0.04,	0.03,	0.18,	1673,	1699
105,	8125,	7791,	7865,	8384,	8835,	8145,	8474,	8488,	8300,	8334,	8789,	8805,	8480,	8945,	0.01,	0.00,	0.03,	0.01,	0.03,	0.01,	0.01,	0.01,	0.04,	0.00,	0.04,	0.04,	0.03,	0.21,	1664,	1712
106,	8116,	7774,	7851,	8379,	8852,	8145,	8497,	8498,	8292,	8321,	8787,	8777,	8471,	8956,	0.01,	0.00,	0.03,	0.01,	0.03,	0.01,	0.01,	0.01,	0.04,	0.00,	0.01,	0.04,	0.03,	0.21,	1655,	1719
107,	8124,	7799,	7855,	8385,	8851,	8137,	8508,	8484,	8289,	8318,	8778,	8778,	8467,	8938,	0.01,	0.00,	0.03,	0.01,	0.03,	0.01,	0.01,	0.01,	0.04,	0.00,	0.01,	0.00,	0.03,	0.21,	1649,	1722
108,	8134,	7778,	7867,	8373,	8836,	8116,	8465,	8502,	8307,	8326,	8790,	8804,	8489,	8951,	0.01,	0.00,	0.03,	0.01,	0.03,	0.01,	0.01,	0.01,	0.04,	0.00,	0.01,	0.00,	0.01,	0.21,	1645,	1721
109,	8103,	7782,	7849,	8371,	8846,	8122,	8478,	8496,	8297,	8326,	8784,	8783,	8475,	8946,	0.01,	0.00,	0.03,	0.01,	0.03,	0.01,	0.01,	0.01,	0.04,	0.00,	0.01,	0.00,	0.01,	0.21,	1643,	1721
110,	8118,	7787,	7863,	8373,	8831,	8141,	8492,	8485,	8291,	8329,	8786,	8788,	8481,	8945,	0.01,	0.00,	0.03,	0.01,	0.03,	0.01,	0.01,	0.01,	0.04,	0.00,	0.00,	0.00,	0.01,	0.21,	1643,	1717
111,	8135,	7770,	7875,	8375,	8832,	8148,	8487,	8499,	8304,	8332,	8790,	8797,	8482,	8962,	0.01,	0.00,	0.03,	0.01,	0.03,	0.01,	0.01,	0.01,	0.04,	0.00,	0.00,	0.04,	0.01,	0.21,	1643,	1716
112,	8118,	7789,	7867,	8389,	8855,	8155,	8495,	8486,	8299,	8323,	8782,	8778,	8460,	8948,	0.01,	0.00,	0.03,	0.01,	0.03,	0.01,	0.01,	0.01,	0.04,	0.00,	0.03,	0.03,	0.01,	0.22,	1646,	1710
113,	8111,	7789,	7881,	8384,	8846,	8134,	8481,	8495,	8295,	8328,	8790,	8805,	8476,	8958,	0.01,	0.00,	0.03,	0.01,	0.03,	0.01,	0.01,	0.01,	0.04,	0.00,	0.03,	0.03,	0.01,	0.22,	1647,	1706
114,	8113,	7780,	7886,	8383,	8842,	8142,	8469,	8494,	8289,	8323,	8793,	8806,	8474,	8947,	0.01,	0.00,	0.03,	0.01,	0.03,	0.01,	0.01,	0.01,	0.04,	0.00,	0.03,	0.03,	0.01,	0.22,	1652,	1703
115,	8126,	7783,	7873,	8387,	8854,	8163,	8501,	8479,	8291,	8325,	8792,	8781,	8449,	8938,	0.01,	0.00,	0.03,	0.01,	0.03,	0.01,	0.01,	0.01,	0.04,	0.00,	0.03,	0.03,	0.01,	0.22,	1655,	1700
116,	8132,	7790,	7875,	8391,	8859,	8155,	8489,	8497,	8291,	8316,	8794,	8795,	8454,	8957,	0.01,	0.00,	0.03,	0.01,	0.03,	0.01,	0.01,	0.01,	0.04,	0.00,	0.03,	0.03,	0.01,	0.22,	1659,	1701
117,	8105,	7799,	7878,	8393,	8861,	8146,	8467,	8484,	8278,	8308,	8792,	8801,	8448,	8935,	0.01,	0.00,	0.03,	0.01,	0.03,	0.01,	0.01,	0.01,	0.04,	0.00,	0.03,	0.03,	0.01,	0.22,	1663,	1701
118,	8090,	7784,	7857,	8375,	8853,	8134,	8478,	8483,	8288,	8324,	8796,	8801,	8444,	8948,	0.01,	0.00,	0.03,	0.01,	0.03,	0.01,	0.01,	0.01,	0.04,	0.00,	0.03,	0.03,	0.01,	0.22,	1667,	1700
119,	8131,	7787,	7849,	8387,	8868,	8164,	8478,	8486,	8285,	8299,	8785,	8784,	8457,	8948,	0.01,	0.00,	0.03,	0.01,	0.03,	0.01,	0.01,	0.01,	0.04,	0.00,	0.03,	0.03,	0.01,	0.22,	1672,	1698
120,	8114,	7796,	7834,	8396,	8869,	8162,	8487,	8475,	8278,	8304,	8786,	8781,	8451,	8928,	0.01,	0.00,	0.03,	0.01,	0.03,	0.01,	0.01,	0.01,	0.04,	0.00,	0.03,	0.03,	0.04,	0.22,	1678,	1699
121,	8084,	7778,	7798,	8373,	8846,	8146,	8491,	8492,	8293,	8318,	8791,	8788,	8448,	8949,	0.01,	0.00,	0.03,	0.01,	0.03,	0.01,	0.01,	0.01,	0.04,	0.00,	0.03,	0.03,	0.04,	0.22,	1684,	1697
122,	8114,	7794,	7810,	8388,	8863,	8180,	8502,	8481,	8292,	8303,	8775,	8768,	8446,	8925,	0.01,	0.00,	0.03,	0.01,	0.03,	0.01,	0.01,	0.01,	0.04,	0.00,	0.03,	0.03,	0.04,	0.22,	1689,	1697
123,	8100,	7792,	7851,	8398,	8860,	8124,	8488,	8488,	8294,	8334,	8794,	8788,	8455,	8933,	0.01,	0.00,	0.03,	0.01,	0.03,	0.01,	0.01,	0.01,	0.04,	0.00,	0.03,	0.00,	0.04,	0.22,	1697,	1696
124,	8101,	7781,	7876,	8387,	8852,	8102,	8474,	8494,	8296,	8337,	8785,	8778,	8454,	8948,	0.01,	0.00,	0.03,	0.01,	0.03,	0.01,	0.01,	0.01,	0.04,	0.00,	0.03,	0.00,	0.03,	0.22,	1700,	1694
125,	8118,	7792,	7899,	8391,	8867,	8128,	8502,	8473,	8298,	8331,	8770,	8771,	8441,	8920,	0.01,	0.00,	0.03,	0.01,	0.03,	0.01,	0.01,	0.01,	0.04,	0.00,	0.03,	0.00,	0.03,	0.21,	1706,	1692
126,	8107,	7776,	7907,	8379,	8852,	8086,	8488,	8498,	8306,	8346,	8795,	8802,	8448,	8947,	0.01,	0.00,	0.03,	0.01,	0.03,	0.01,	0.01,	0.01,	0.04,	0.00,	0.00,	0.00,	0.03,	0.21,	1710,	1687
127,	8114,	7788,	7917,	8383,	8850,	8111,	8482,	8488,	8293,	8334,	8782,	8773,	8437,	8935,	0.01,	0.00,	0.03,	0.01,	0.03,	0.01,	0.01,	0.01,	0.04,	0.00,	0.00,	0.03,	0.03,	0.21,	1714,	1685
0,	8104,	7773,	7913,	8374,	8840,	8082,	8472,	8511,	8304,	8338,	8789,	8788,	8444,	8964,	0.00,	0.00,	0.03,	0.01,	0.03,	0.01,	0.01,	0.01,	0.04,	0.00,	0.00,	0.03,	0.03,	0.21,	1720,	1678
1,	8108,	7797,	7907,	8383,	8853,	8107,	8488,	8491,	8293,	8321,	8780,	8763,	8428,	8937,	0.00,	0.00,	0.03,	0.01,	0.03,	0.01,	0.01,	0.01,	0.04,	0.00,	0.00,	0.03,	0.03,	0.21,	1725,	1675
2,	8101,	7771,	7916,	8373,	8845,	8078,	8491,	8505,	8305,	8332,	8797,	8798,	8438,	8948,	0.00,	0.00,	0.04,	0.01,	0.03,	0.01,	0.01,	0.01,	0.04,	0.00,	0.00,	0.03,	0.03,	0.21,	1727,	1671
3,	8111,	7787,	7923,	8380,	8859,	8082,	8484,	8505,	8302,	8329,	8780,	8781,	8434,	8960,	0.00,	0.00,	0.04,	0.00,	0.03,	0.01,	0.01,	0.01,	0.04,	0.00,	0.00,	0.03,	0.03,	0.21,	1728,	1669
4,	8102,	7792,	7927,	8382,	8852,	8098,	8486,	8496,	8302,	8325,	8776,	8771,	8429,	8949,	0.00,	0.00,	0.04,	0.00,	0.03,	0.01,	0.01,	0.01,	0.04,	0.00,	0.00,	0.03,	0.03,	0.21,	1727,	1669
5,	8109,	7779,	7932,	8368,	8839,	8077,	8480,	8509,	8305,	8337,	8792,	8798,	8431,	8962,	0.00,	0.00,	0.04,	0.00,	0.03,	0.06,	0.01,	0.01,	0.04,	0.00,	0.00,	0.03,	0.03,	0.21,	1728,	1669
6,	8111,	7795,	7933,	8374,	8841,	8084,	8475,	8493,	8299,	8333,	8783,	8783,	8419,	8947,	0.00,	0.00,	0.04,	0.00,	0.03,	0.06,	0.04,	0.01,	0.04,	0.00,	0.00,	0.03,	0.03,	0.21,	1725,	1669
7,	8092,	7770,	7933,	8368,	8828,	8075,	8468,	8505,	8313,	8338,	8788,	8791,	8425,	8957,	0.00,	0.00,	0.04,	0.00,	0.03,	0.06,	0.04,	0.00,	0.04,	0.00,	0.00,	0.03,	0.03,	0.21,	1724,	1669
8,	8107,	7785,	7941,	8377,	8836,	8087,	8482,	8503,	8309,	8342,	8788,	8794,	8422,	8957,	0.00,	0.00,	0.04,	0.00,	0.03,	0.06,	0.04,	0.00,	0.03,	0.00,	0.00,	0.03,	0.03,	0.21,	1721,	1667
9,	8107,	7796,	7936,	8379,	8840,	8095,	8475,	8491,	8303,	8334,	8784,	8777,	8419,	8945,	0.00,	0.00,	0.04,	0.00,	0.03,	0.06,	0.04,	0.00,	0.03,	0.04,	0.00,	0.03,	0.03,	0.21,	1718,	1668
10,	8102,	7780,	7930,	8368,	8833,	8080,	8477,	8508,	8314,	8339,	8791,	8788,	8433,	8961,	0.00,	0.00,	0.04,	0.00,	0.03,	0.06,	0.04,	0.00,	0.03,	0.04,	0.01,	0.03,	0.03,	0.21,	1716,	1666
11,	8113,	7802,	7931,	8384,	8843,	8098,	8494,	8493,	8298,	8333,	8784,	8786,	8422,	8945,	0.00,	0.00,	0.04,	0.00,	0.03,	0.06,	0.04,	0.00,	0.03,	0.04,	0.01,	0.03,	0.03,	0.21,	1713,	1667
12,	8114,	7790,	7939,	8377,	8845,	8083,	8478,	8492,	8295,	8330,	8789,	8777,	8421,	8950,	0.00,	0.00,	0.04,	0.00,	0.03,	0.06,	0.04,	0.00,	0.03,	0.04,	0.01,	0.03,	0.03,	0.21,	1711,	1667
13,	8113,	7791,	7944,	8371,	8852,	8071,	8486,	8500,	8298,	8331,	8792,	8777,	8429,	8959,	0.00,	0.00,	0.04,	0.00,	0.03,	0.06,	0.04,	0.00,	0.03,	0.04,	0.01,	0.03,	0.03,	0.03,	1706,	1668
14,	8105,	7806,	7932,	8378,	8853,	8086,	8482,	8494,	8290,	8319,	8783,	8773,	8423,	8943,	0.00,	0.00,	0.04,	0.00,	0.03,	0.06,	0.04,	0.00,	0.03,	0.04,	0.03,	0.03,	0.03,	0.03,	1704,	1670
15,	8107,	7789,	7928,	8364,	8853,	8078,	8481,	8502,	8297,	8325,	8789,	8780,	8424,	8958,	0.00,	0.00,	0.04,	0.00,	0.03,	0.06,	0.04,	0.00,	0.03,	0.04,	0.03,	0.01,	0.03,	0.03,	1701,	1672
16,	8113,	7801,	7925,	8372,	8867,	8090,	8498,	8490,	8289,	8321,	8789,	8774,	8425,	8950,	0.00,	0.00,	0.04,	0.00,	0.03,	0.06,	0.04,	0.00,	0.03,	0.04,	0.03,	0.01,	0.03,	0.03,	1700,	1676
17,	8105,	7795,	7911,	8378,	8858,	8084,	8477,	8498,	8289,	8315,	8787,	8783,	8438,	8952,	0.00,	0.00,	0.04,	0.00,	0.03,	0.06,	0.04,	0.00,	0.03,	0.04,	0.03,	0.01,	0.03,	0.03,	1698,	1679
18,	8107,	7789,	7906,	8374,	8855,	8076,	8495,	8507,	8296,	8325,	8782,	8790,	8435,	8959,	0.00,	0.00,	0.04,	0.00,	0.03,	0.06,	0.04,	0.00,	0.03,	0.04,	0.03,	0.01,	0.03,	0.03,	1696,	1685
19,	8113,	7805,	7907,	8381,	8854,	8088,	8494,	8490,	8289,	8318,	8785,	8780,	8429,	8944,	0.00,	0.00,	0.04,	0.00,	0.03,	0.06,	0.04,	0.00,	0.03,	0.04,	0.03,	0.01,	0.03,	0.03,	1695,	1687
20,	8108,	7789,	7904,	8374,	8846,	8077,	8472,	8503,	8294,	8320,	8795,	8790,	8443,	8961,	0.00,	0.00,	0.04,	0.00,	0.03,	0.06,	0.04,	0.00,	0.03,	0.04,	0.03,	0.01,	0.03,	0.03,	1691,	1693
21,	8109,	7799,	7899,	8380,	8857,	8091,	8495,	8498,	8288,	8326,	8781,	8784,	8434,	8954,	0.00,	0.00,	0.04,	0.00,	0.03,	0.06,	0.04,	0.00,	0.03,	0.04,	0.03,	0.01,	0.03,	0.03,	1690,	1694
22,	8116,	7805,	7901,	8385,	8854,	8094,	8485,	8492,	8288,	8322,	8784,	8785,	8435,	8947,	0.00,	0.00,	0.04,	0.00,	0.03,	0.06,	0.04,	0.00,	0.03,	0.04,	0.03,	0.01,	0.03,	0.03,	1686,	1696
23,	8114,	7790,	7900,	8373,	8849,	8078,	8484,	8504,	8296,	8321,	8795,	8788,	8443,	8961,	0.00,	0.00,	0.04,	0.00,	0.03,	0.06,	0.04,	0.00,	0.03,	0.04,	0.03,	0.01,	0.03,	0.03,	1682,	1697
24,	8111,	7808,	7895,	8380,	8859,	8092,	8495,	8492,	8287,	8319,	8786,	8775,	8436,	8947,	0.00,	0.00,	0.04,	0.00,	0.03,	0.06,	0.04,	0.00,	0.03,	0.04,	0.03,	0.01,	0.03,	0.03,	1677,	1697
25,	8115,	7802,	7896,	8377,	8852,	8081,	8477,	8497,	8290,	8325,	8789,	8790,	8444,	8962,	0.00,	0.00,	0.04,	0.00,	0.03,	0.06,	0.04,	0.00,	0.03,	0.04,	0.03,	0.01,	0.03,	0.03,	1671,	1700
26,	8111,	7798,	7900,	8377,	8853,	8085,	8490,	8496,	8292,	8321,	8786,	8784,	8445,	8960,	0.00,	0.00,	0.04,	0.00,	0.03,	0.06,	0.04,	0.00,	0.03,	0.04,	0.03,	0.01,	0.03,	0.03,	1666,	1705
27,	8101,	7806,	7900,	8383,	8855,	8097,	8498,	8493,	8287,	8316,	8782,	8776,	8438,	8948,	0.00,	0.00,	0.04,	0.00,	0.03,	0.06,	0.04,	0.00,	0.03,	0.04,	0.03,	0.01,	0.03,	0.03,	1662,	1714
28,	8106,	7791,	7896,	8373,	8849,	8080,	8465,	8506,	8293,	8328,	8793,	8799,	8443,	8966,	0.00,	0.00,	0.04,	0.00,	0.03,	0.06,	0.04,	0.00,	0.03,	0.04,	0.03,	0.01,	0.03,	0.03,	1659,	1728
29,	8112,	7802,	7903,	8379,	8858,	8089,	8484,	8487,	8287,	8329,	8788,	8784,	8436,	8952,	0.00,	0.00,	0.04,	0.00,	0.03,	0.06,	0.04,	0.00,	0.03,	0.04,	0.03,	0.01,	0.03,	0.03,	1654,	1756
30,	8108,	7800,	7905,	8381,	8854,	8091,	8493,	8491,	8286,	8326,	8781,	8779,	8433,	8953,	0.00,	0.00,	0.04,	0.00,	0.03,	0.06,	0.04,	0.00,	0.03,	0.04,	0.03,	0.01,	0.03,	0.03,	1654,	1769
31,	8106,	7789,	7897,	8378,	8848,	8090,	8465,	8500,	8294,	8337,	8780,	8799,	8434,	8955,	0.00,	0.00,	0.04,	0.00,	0.03,	0.06,	0.04,	0.00,	0.03,	0.04,	0.03,	0.01,	0.03,	0.03,	1659,	1780
32,	8106,	7808,	7884,	8385,	8860,	8099,	8505,	8483,	8292,	8353,	8780,	8799,	8425,	8951,	0.00,	0.00,	0.04,	0.00,	0.03,	0.06,	0.04,	0.00,	0.03,	0.04,	0.03,	0.01,	0.03,	0.03,	1661,	1787
33,	8108,	7798,	7900,	8377,	8853,	8089,	8490,	8500,	8297,	8360,	8781,	8789,	8442,	8967,	0.00,	0.00,	0.04,	0.00,	0.03,	0.06,	0.04,	0.00,	0.03,	0.04,	0.03,	0.01,	0.03,	0.03,	1665,	1790
34,	8110,	7798,	7880,	8377,	8862,	8102,	8476,	8499,	8298,	8364,	8763,	8783,	8441,	8946,	0.00,	0.00,	0.04,	0.00,	0.03,	0.06,	0.04,	0.00,	0.03,	0.04,	0.03,	0.01,	0.03,	0.03,	1667,	1790
35,	8107,	7811,	7809,	8386,	8889,	8107,	8526,	8490,	8291,	8374,	8769,	8829,	8427,	8946,	0.00,	0.00,	0.04,	0.00,	0.03,	0.06,	0.04,	0.00,	0.03,	0.04,	0.03,	0.01,	0.03,	0.03,	1672,	1786
36,	8103,	7780,	7971,	8373,	8925,	8077,	8478,	8506,	8301,	8366,	8788,	8739,	8449,	8958,	0.00,	0.00,	0.04,	0.00,	0.03,	0.06,	0.04,	0.00,	0.03,	0.04,	0.03,	0.01,	0.03,	0.03,	1678,	1777
37,	8101,	7800,	8016,	8382,	8974,	8094,	8494,	8484,	8299,	8345,	8756,	8645,	8423,	8938,	0.00,	0.00,	0.04,	0.00,	0.03,	0.06,	0.04,	0.00,	0.03,	0.04,	0.03,	0.01,	0.03,	0.03,	1686,	1765
38,	8119,	7826,	7842,	8410,	8929,	8115,	8513,	8473,	8282,	8325,	8775,	8808,	8400,	8927,	0.00,	0.00,	0.04,	0.00,	0.03,	0.06,	0.04,	0.00,	0.03,	0.04,	0.03,	0.01,	0.03,	0.03,	1695,	1748
39,	8100,	7778,	7916,	8390,	8862,	8096,	8449,	8489,	8296,	8319,	8813,	8819,	8430,	8918,	0.00,	0.00,	0.04,	0.00,	0.03,	0.06,	0.04,	0.00,	0.03,	0.04,	0.03,	0.01,	0.03,	0.03,	1703,	1733
40,	8080,	7781,	7936,	8366,	8887,	8118,	8480,	8483,	8309,	8323,	8770,	8712,	8418,	8928,	0.00,	0.00,	0.04,	0.00,	0.03,	0.06,	0.04,	0.00,	0.03,	0.04,	0.03,	0.01,	0.03,	0.03,	1715,	1710
41,	8145,	7824,	7898,	8375,	8876,	8139,	8464,	8475,	8293,	8319,	8782,	8793,	8423,	8919,	0.00,	0.00,	0.04,	0.00,	0.03,	0.06,	0.04,	0.00,	0.03,	0.04,	0.03,	0.01,	0.03,	0.03,	1725,	1690
42,	8123,	7826,	7930,	8370,	8859,	8123,	8448,	8477,	8294,	8311,	8796,	8757,	8424,	8900,	0.00,	0.00,	0.04,	0.00,	0.03,	0.06,	0.04,	0.00,	0.03,	0.04,	0.03,	0.01,	0.03,	0.03,	1735,	1671
43,	8104,	7840,	7912,	8362,	8878,	8113,	8484,	8483,	8306,	8321,	8777,	8729,	8414,	8925,	0.00,	0.00,	0.04,	0.00,	0.03,	0.06,	0.04,	0.00,	0.03,	0.04,	0.03,	0.01,	0.03,	0.03,	1744,	1656
44,	8151,	7857,	7956,	8371,	8884,	8117,	8451,	8475,	8295,	8324,	8793,	8801,	8433,	8913,	0.00,	0.00,	0.04,	0.00,	0.03,	0.06,	0.04,	0.00,	0.03,	0.04,	0.03,	0.01,	0.03,	0.03,	1750,	1644
45,	8098,	7812,	7919,	8370,	8903,	8123,	8460,	8480,	8300,	8308,	8780,	8739,	8424,	8900,	0.00,	0.00,	0.04,	0.00,	0.03,	0.06,	0.04,	0.00,	0.03,	0.04,	0.03,	0.01,	0.03,	0.03,	1754,	1635
46,	8117,	7791,	7905,	8386,	8893,	8123,	8491,	8483,	8297,	8299,	8782,	8759,	8429,	8928,	0.00,	0.00,	0.04,	0.00,	0.03,	0.06,	0.04,	0.00,	0.03,	0.04,	0.03,	0.01,	0.03,	0.03,	1754,	1632
47,	8125,	7789,	7924,	8389,	8858,	8123,	8473,	8474,	8282,	8291,	8791,	8780,	8445,	8916,	0.00,	0.00,	0.04,	0.00,	0.03,	0.06,	0.04,	0.00,	0.03,	0.04,	0.03,	0.01,	0.03,	0.03,	1750,	1629
48,	8081,	7757,	7852,	8363,	8858,	8117,	8488,	8488,	8294,	8300,	8778,	8742,	8440,	8923,	0.00,	0.00,	0.04,	0.00,	0.03,	0.06,	0.04,	0.00,	0.03,	0.04,	0.03,	0.01,	0.03,	0.03,	1748,	1627
49,	8124,	7765,	7810,	8386,	8853,	8132,	8517,	8485,	8285,	8315,	8784,	8819,	8444,	8928,	0.00,	0.00,	0.04,	0.00,	0.03,	0.06,	0.04,	0.00,	0.03,	0.04,	0.03,	0.01,	0.03,	0.03,	1746,	1627
50,	8107,	7753,	7889,	8385,	8814,	8129,	8485,	8484,	8291,	8321,	8776,	8727,	8459,	8909,	0.00,	0.00,	0.04,	0.00,	0.03,	0.06,	0.04,	0.00,	0.03,	0.04,	0.03,	0.01,	0.03,	0.03,	1741,	1630
51,	8105,	7774,	7899,	8362,	8787,	8119,	8502,	8490,	8306,	8341,	8771,	8699,	8458,	8929,	0.00,	0.00,	0.04,	0.00,	0.03,	0.06,	0.04,	0.00,	0.03,	0.04,	0.03,	0.01,	0.03,	0.03,	1738,	1631
52,	8139,	7831,	7765,	8371,	8776,	8126,	8513,	8484,	8289,	8332,	8788,	8873,	8451,	8931,	0.00,	0.00,	0.04,	0.00,	0.03,	0.06,	0.04,	0.00,	0.03,	0.04,	0.03,	0.01,	0.03,	0.03,	1729,	1637
53,	8123,	7807,	7846,	8358,	8776,	8096,	8468,	8500,	8299,	8326,	8789,	8829,	8481,	8935,	0.00,	0.00,	0.04,	0.00,	0.03,	0.06,	0.04,	0.00,	0.03,	0.04,	0.03,	0.01,	0.03,	0.03,	1720,	1643
54,	8119,	7827,	7933,	8373,	8814,	8101,	8513,	8495,	8298,	8335,	8779,	8758,	8477,	8935,	0.00,	0.00,	0.04,	0.00,	0.03,	0.06,	0.04,	0.00,	0.03,	0.04,	0.03,	0.01,	0.03,	0.03,	1709,	1649
55,	8114,	7839,	7858,	8377,	8818,	8110,	8498,	8488,	8290,	8315,	8789,	8802,	8470,	8924,	0.00,	0.00,	0.04,	0.00,	0.03,	0.06,	0.04,	0.00,	0.03,	0.04,	0.03,	0.01,	0.03,	0.03,	1700,	1656
56,	8119,	7805,	7897,	8360,	8813,	8076,	8473,	8498,	8303,	8317,	8796,	8791,	8493,	8944,	0.00,	0.00,	0.04,	0.00,	0.03,	0.06,	0.04,	0.00,	0.03,	0.04,	0.03,	0.01,	0.03,	0.03,	1690,	1665
57,	8131,	7831,	7912,	8377,	8838,	8092,	8506,	8493,	8294,	8323,	8789,	8788,	8489,	8939,	0.00,	0.00,	0.04,	0.00,	0.03,	0.06,	0.04,	0.00,	0.03,	0.04,	0.03,	0.01,	0.03,	0.03,	1681,	1673
58,	8121,	7817,	7876,	8362,	8838,	8097,	8467,	8498,	8289,	8314,	8797,	8792,	8494,	8940,	0.00,	0.00,	0.04,	0.00,	0.03,	0.06,	0.04,	0.00,	0.03,	0.04,	0.03,	0.01,	0.03,	0.03,	1674,	1680
59,	8118,	7806,	7867,	8361,	8838,	8089,	8487,	8496,	8293,	8317,	8795,	8794,	8493,	8951,	0.00,	0.00,	0.04,	0.00,	0.03,	0.06,	0.04,	0.00,	0.03,	0.04,	0.03,	0.01,	0.03,	0.03,	1669,	1686
60,	8142,	7825,	7855,	8380,	8831,	8108,	8495,	8497,	8293,	8315,	8793,	8810,	8499,	8942,	0.00,	0.00,	0.04,	0.00,	0.03,	0.06,	0.04,	0.00,	0.03,	0.04,	0.03,	0.01,	0.03,	0.03,	1665,	1691
61,	8128,	7806,	7845,	8370,	8834,	8093,	8467,	8516,	8299,	8315,	8796,	8802,	8504,	8958,	0.00,	0.00,	0.04,	0.00,	0.03,	0.06,	0.04,	0.00,	0.03,	0.04,	0.03,	0.01,	0.03,	0.03,	1662,	1700
62,	8097,	7821,	7835,	8381,	8849,	8093,	8491,	8501,	8295,	8311,	8791,	8784,	8487,	8953,	0.00,	0.00,	0.04,	0.00,	0.03,	0.06,	0.04,	0.00,	0.03,	0.04,	0.03,	0.01,	0.03,	0.03,	1661,	1704
63,	8137,	7812,	7836,	8378,	8836,	8119,	8478,	8506,	8295,	8311,	8799,	8802,	8505,	8938,	0.00,	0.00,	0.04,	0.00,	0.03,	0.06,	0.04,	0.00,	0.03,	0.04,	0.03,	0.01,	0.03,	0.03,	1657,	1709
64,	8150,	7797,	7839,	8369,	8844,	8124,	8487,	8517,	8292,	8318,	8790,	8801,	8501,	8945,	0.04,	0.00,	0.04,	0.00,	0.03,	0.06,	0.04,	0.00,	0.03,	0.04,	0.03,	0.01,	0.03,	0.03,	1659,	1712
65,	8115,	7825,	7852,	8387,	8852,	8118,	8497,	8502,	8286,	8316,	8788,	8794,	8486,	8941,	0.04,	0.01,	0.04,	0.00,	0.03,	0.06,	0.04,	0.00,	0.03,	0.04,	0.03,	0.01,	0.03,	0.03,	1659,	1713
66,	8128,	7810,	7863,	8380,	8837,	8112,	8472,	8517,	8298,	8322,	8801,	8816,	8504,	8953,	0.04,	0.01,	0.00,	0.00,	0.03,	0.06,	0.04,	0.00,	0.03,	0.04,	0.03,	0.01,	0.03,	0.03,	1659,	1716
67,	8143,	7807,	7857,	8374,	8849,	8127,	8482,	8511,	8293,	8315,	8787,	8806,	8490,	8950,	0.04,	0.01,	0.00,	0.03,	0.03,	0.06,	0.04,	0.00,	0.03,	0.04,	0.03,	0.01,	0.03,	0.03,	1660,	1715
68,	8127,	7820,	7857,	8382,	8846,	8130,	8491,	8501,	8285,	8319,	8794,	8817,	8484,	8935,	0.04,	0.01,	0.00,	0.03,	0.04,	0.06,	0.04,	0.00,	0.03,	0.04,	0.03,	0.01,	0.03,	0.03,	1662,	1716
69,	8125,	7810,	7868,	8385,	8841,	8125,	8478,	8518,	8289,	8336,	8795,	8816,	8493,	8946,	0.04,	0.01,	0.00,	0.03,	0.04,	0.03,	0.04,	0.00,	0.03,	0.04,	0.03,	0.01,	0.03,	0.03,	1664,	1714
70,	8125,	7823,	7873,	8390,	8854,	8123,	8484,	8503,	8286,	8336,	8779,	8786,	8473,	8943,	0.04,	0.01,	0.00,	0.03,	0.04,	0.03,	0.00,	0.00,	0.03,	0.04,	0.03,	0.01,	0.03,	0.03,	1667,	1713
71,	8111,	7818,	7860,	8375,	8841,	8092,	8474,	8506,	8294,	8331,	8804,	8807,	8467,	8955,	0.04,	0.01,	0.00,	0.03,	0.04,	0.03,	0.00,	0.15,	0.03,	0.04,	0.03,	0.01,	0.03,	0.03,	1670,	1709
72,	8132,	7809,	7869,	8372,	8847,	8111,	8475,	8507,	8297,	8320,	8796,	8788,	8460,	8943,	0.04,	0.01,	0.00,	0.03,	0.04,	0.03,	0.00,	0.15,	0.04,	0.04,	0.03,	0.01,	0.03,	0.03,	1671,	1709
73,	8137,	7822,	7900,	8392,	8861,	8135,	8509,	8488,	8290,	8326,	8776,	8773,	8440,	8924,	0.04,	0.01,	0.00,	0.03,	0.04,	0.03,	0.00,	0.15,	0.04,	0.01,	0.03,	0.01,	0.03,	0.03,	1673,	1705
74,	8113,	7815,	7893,	8383,	8848,	8107,	8472,	8509,	8291,	8327,	8794,	8790,	8439,	8950,	0.04,	0.01,	0.00,	0.03,	0.04,	0.03,	0.00,	0.15,	0.04,	0.01,	0.00,	0.01,	0.03,	0.03,	1673,	1702
75,	8124,	7819,	7890,	8378,	8856,	8120,	8458,	8501,	8286,	8316,	8789,	8768,	8425,	8939,	0.04,	0.01,	0.00,	0.03,	0.04,	0.03,	0.00,	0.15,	0.04,	0.01,	0.00,	0.03,	0.03,	0.03,	1677,	1698
76,	8128,	7824,	7895,	8382,	8864,	8130,	8493,	8493,	8287,	8322,	8789,	8780,	8418,	8926,	0.04,	0.01,	0.00,	0.03,	0.04,	0.03,	0.00,	0.15,	0.04,	0.01,	0.00,	0.03,	0.01,	0.03,	1681,	1689
77,	8114,	7815,	7878,	8383,	8869,	8126,	8460,	8507,	8289,	8317,	8795,	8783,	8426,	8915,	0.04,	0.01,	0.00,	0.03,	0.04,	0.03,	0.00,	0.15,	0.04,	0.01,	0.00,	0.03,	0.01,	0.00,	1685,	1684
78,	8109,	7821,	7876,	8388,	8877,	8130,	8471,	8490,	8290,	8320,	8784,	8766,	8419,	8913,	0.04,	0.01,	0.00,	0.03,	0.04,	0.03,	0.00,	0.15,	0.04,	0.01,	0.04,	0.03,	0.01,	0.00,	1691,	1679
79,	8108,	7810,	7874,	8376,	8862,	8115,	8492,	8497,	8294,	8320,	8786,	8781,	8418,	8959,	0.04,	0.01,	0.00,	0.03,	0.04,	0.03,	0.00,	0.15,	0.04,	0.01,	0.04,	0.00,	0.01,	0.00,	1695,	1678
80,	8125,	7818,	7876,	8377,	8863,	8127,	8480,	8491,	8286,	8310,	8785,	8777,	8413,	8944,	0.04,	0.01,	0.00,	0.03,	0.04,	0.03,	0.00,	0.15,	0.04,	0.01,	0.04,	0.00,	0.00,	0.00,	1701,	1677
81,	8135,	7828,	7893,	8382,	8864,	8119,	8501,	8489,	8292,	8325,	8788,	8778,	8410,	8905,	0.04,	0.01,	0.00,	0.03,	0.04,	0.03,	0.00,	0.15,	0.04,	0.01,	0.04,	0.00,	0.00,	0.01,	1706,	1677
82,	8127,	7815,	7908,	8376,	8859,	8103,	8499,	8505,	8291,	8317,	8792,	8777,	8412,	8907,	0.04,	0.01,	0.00,	0.03,	0.04,	0.03,	0.00,	0.15,	0.04,	0.01,	0.04,	0.00,	0.00,	0.01,	1713,	1676
83,	8130,	7822,	7934,	8383,	8862,	8111,	8488,	8489,	8280,	8304,	8782,	8772,	8404,	8915,	0.04,	0.01,	0.00,	0.03,	0.04,	0.03,	0.00,	0.15,	0.04,	0.01,	0.04,	0.00,	0.00,	0.01,	1717,	1678
84,	8131,	7808,	7946,	8376,	8846,	8088,	8483,	8497,	8292,	8325,	8787,	8789,	8412,	8945,	0.04,	0.01,	0.00,	0.03,	0.04,	0.03,	0.00,	0.15,	0.04,	0.01,	0.04,	0.00,	0.04,	0.01,	1721,	1679
85,	8125,	7809,	7941,	8373,	8842,	8103,	8483,	8497,	8287,	8322,	8787,	8777,	8416,	8938,	0.04,	0.01,	0.00,	0.03,	0.04,	0.03,	0.00,	0.15,	0.04,	0.01,	0.04,	0.00,	0.04,	0.04,	1724,	1680
86,	8128,	7824,	7941,	8379,	8846,	8121,	8490,	8491,	8285,	8320,	8784,	8778,	8409,	8912,	0.04,	0.01,	0.00,	0.03,	0.04,	0.03,	0.00,	0.15,	0.04,	0.01,	0.03,	0.00,	0.04,	0.04,	1725,	1678
87,	8129,	7809,	7931,	8372,	8845,	8100,	8488,	8504,	8296,	8328,	8789,	8793,	8410,	8922,	0.04,	0.01,	0.00,	0.03,	0.04,	0.03,	0.00,	0.15,	0.04,	0.01,	0.03,	0.00,	0.04,	0.04,	1724,	1675
88,	8131,	7820,	7930,	8380,	8851,	8104,	8494,	8492,	8281,	8315,	8780,	8781,	8411,	8923,	0.04,	0.01,	0.00,	0.03,	0.04,	0.03,	0.00,	0.15,	0.04,	0.01,	0.03,	0.00,	0.03,	0.04,	1723,	1673
89,	8131,	7818,	7936,	8380,	8844,	8102,	8489,	8502,	8282,	8321,	8784,	8788,	8417,	8929,	0.04,	0.01,	0.00,	0.03,	0.04,	0.03,	0.00,	0.15,	0.04,	0.01,	0.03,	0.00,	0.03,	0.01,	1719,	1672
90,	8126,	7811,	7934,	8375,	8845,	8109,	8488,	8505,	8290,	8325,	8792,	8785,	8412,	8932,	0.04,	0.01,	0.00,	0.03,	0.04,	0.03,	0.00,	0.15,	0.04,	0.01,	0.00,	0.00,	0.03,	0.01,	1716,	1670
91,	8125,	7819,	7937,	8377,	8844,	8117,	8485,	8491,	8281,	8310,	8786,	8773,	8408,	8920,	0.04,	0.01,	0.00,	0.03,	0.04,	0.03,	0.00,	0.15,	0.04,	0.01,	0.00,	0.01,	0.03,	0.01,	1710,	1671
92,	8121,	7810,	7947,	8367,	8831,	8103,	8484,	8505,	8294,	8327,	8789,	8785,	8418,	8934,	0.04,	0.01,	0.00,	0.03,	0.04,	0.03,	0.00,	0.15,	0.04,	0.01,	0.00,	0.01,	0.00,	0.01,	1707,	1672
93,	8126,	7819,	7949,	8374,	8840,	8106,	8484,	8501,	8292,	8322,	8794,	8778,	8413,	8937,	0.04,	0.01,	0.00,	0.03,	0.04,	0.03,	0.00,	0.15,	0.04,	0.01,	0.00,	0.01,	0.00,	0.00,	1701,	1673
94,	8128,	7816,	7945,	8380,	8853,	8093,	8476,	8502,	8281,	8307,	8796,	8775,	8418,	8923,	0.04,	0.01,	0.00,	0.03,	0.04,	0.03,	0.00,	0.15,	0.04,	0.01,	0.00,	0.01,	0.00,	0.00,	1700,	1673
95,	8121,	7814,	7949,	8381,	8857,	8096,	8482,	8504,	8295,	8323,	8796,	8777,	8423,	8904,	0.04,	0.01,	0.00,	0.03,	0.04,	0.03,	0.00,	0.15,	0.04,	0.01,	0.00,	0.03,	0.00,	0.00,	1697,	1672
96,	8123,	7825,	7940,	8382,	8861,	8114,	8475,	8493,	8294,	8312,	8791,	8770,	8413,	8914,	0.04,	0.01,	0.00,	0.03,	0.04,	0.03,	0.00,	0.15,	0.04,	0.01,	0.00,	0.03,	0.04,	0.00,	1696,	1676
97,	8125,	7810,	7931,	8367,	8863,	8096,	8477,	8501,	8293,	8310,	8794,	8778,	8417,	8975,	0.04,	0.01,	0.00,	0.03,	0.04,	0.03,	0.00,	0.15,	0.04,	0.01,	0.00,	0.03,	0.04,	0.01,	1695,	1677
98,	8122,	7814,	7925,	8374,	8867,	8099,	8491,	8497,	8294,	8322,	8794,	8779,	8425,	8977,	0.04,	0.01,	0.00,	0.03,	0.04,	0.03,	0.00,	0.15,	0.04,	0.01,	0.04,	0.03,	0.04,	0.01,	1696,	1680
99,	8122,	7809,	7911,	8372,	8861,	8097,	8475,	8502,	8290,	8315,	8790,	8780,	8426,	8908,	0.04,	0.01,	0.00,	0.03,	0.04,	0.03,	0.00,	0.15,	0.04,	0.01,	0.04,	0.04,	0.04,	0.01,	1698,	1681
100,	8128,	7807,	7916,	8368,	8861,	8095,	8489,	8502,	8292,	8318,	8786,	8786,	8423,	8875,	0.04,	0.01,	0.00,	0.03,	0.04,	0.03,	0.00,	0.15,	0.04,	0.01,	0.04,	0.04,	0.01,	0.01,	1699,	1683
101,	8130,	7821,	7916,	8378,	8862,	8106,	8496,	8494,	8293,	8318,	8790,	8784,	8424,	8922,	0.04,	0.01,	0.00,	0.03,	0.04,	0.03,	0.00,	0.15,	0.04,	0.01,	0.04,	0.04,	0.01,	0.00,	1701,	1684
102,	8128,	7811,	7910,	8370,	8851,	8085,	8485,	8507,	8290,	8320,	8794,	8794,	8433,	8999,	0.04,	0.01,	0.00,	0.03,	0.04,	0.03,	0.00,	0.15,	0.04,	0.01,	0.01,	0.04,	0.01,	0.00,	1701,	1684
103,	8133,	7827,	7916,	8378,	8855,	8103,	8501,	8496,	8279,	8320,	8782,	8784,	8424,	8976,	0.04,	0.01,	0.00,	0.03,	0.04,	0.03,	0.00,	0.15,	0.04,	0.01,	0.01,	0.01,	0.01,	0.00,	1702,	1685
104,	8132,	7822,	7909,	8379,	8853,	8118,	8486,	8499,	8291,	8316,	8789,	8782,	8430,	8908,	0.04,	0.01,	0.00,	0.03,	0.04,	0.03,	0.00,	0.15,	0.04,	0.01,	0.01,	0.01,	0.03,	0.00,	1700,	1687
105,	8125,	7807,	7905,	8373,	8847,	8098,	8479,	8510,	8294,	8320,	8797,	8794,	8437,	8888,	0.04,	0.01,	0.00,	0.03,	0.04,	0.03,	0.00,	0.15,	0.04,	0.01,	0.01,	0.01,	0.03,	0.04,	1700,	1688
106,	8138,	7827,	7904,	8380,	8851,	8111,	8500,	8495,	8278,	8315,	8787,	8782,	8426,	8911,	0.04,	0.01,	0.00,	0.03,	0.04,	0.03,	0.00,	0.15,	0.04,	0.01,	0.00,	0.01,	0.03,	0.04,	1699,	1686
107,	8146,	7811,	7906,	8373,	8849,	8112,	8493,	8503,	8291,	8315,	8792,	8786,	8435,	8979,	0.04,	0.01,	0.00,	0.03,	0.04,	0.03,	0.00,	0.15,	0.04,	0.01,	0.00,	0.01,	0.03,	0.04,	1698,	1687
108,	8121,	7815,	7909,	8379,	8856,	8107,	8482,	8501,	8293,	8310,	8793,	8784,	8436,	8979,	0.04,	0.01,	0.00,	0.03,	0.04,	0.03,	0.00,	0.15,	0.04,	0.01,	0.00,	0.01,	0.03,	0.04,	1697,	1686
109,	8117,	7827,	7896,	8382,	8853,	8108,	8479,	8501,	8284,	8313,	8790,	8778,	8431,	8918,	0.04,	0.01,	0.00,	0.03,	0.04,	0.03,	0.00,	0.15,	0.04,	0.01,	0.00,	0.01,	0.03,	0.04,	1694,	1689
110,	8133,	7807,	7902,	8370,	8848,	8107,	8486,	8513,	8291,	8329,	8793,	8793,	8439,	8894,	0.04,	0.01,	0.00,	0.03,	0.04,	0.03,	0.00,	0.15,	0.04,	0.01,	0.03,	0.01,	0.03,	0.04,	1694,	1690
111,	8121,	7821,	7910,	8379,	8858,	8116,	8488,	8497,	8287,	8317,	8791,	8788,	8431,	8912,	0.04,	0.01,	0.00,	0.03,	0.04,	0.03,	0.00,	0.15,	0.04,	0.01,	0.03,	0.00,	0.03,	0.04,	1692,	1692
112,	8114,	7817,	7898,	8373,	8848,	8092,	8473,	8507,	8292,	8313,	8799,	8788,	8435,	8966,	0.04,	0.01,	0.00,	0.03,	0.04,	0.03,	0.00,	0.15,	0.04,	0.01,	0.03,	0.00,	0.01,	0.04,	1692,	1694
113,	8134,	7808,	7905,	8366,	8846,	8100,	8484,	8511,	8292,	8323,	8800,	8790,	8441,	8973,	0.04,	0.01,	0.00,	0.03,	0.04,	0.03,	0.00,	0.15,	0.04,	0.01,	0.03,	0.00,	0.01,	0.00,	1691,	1695
114,	8128,	7823,	7908,	8377,	8858,	8120,	8494,	8499,	8278,	8318,	8786,	8786,	8434,	8923,	0.04,	0.01,	0.00,	0.03,	0.04,	0.03,	0.00,	0.15,	0.04,	0.01,	0.03,	0.00,	0.01,	0.00,	1692,	1695
115,	8115,	7810,	7897,	8376,	8857,	8099,	8474,	8517,	8289,	8316,	8792,	8793,	8441,	8898,	0.04,	0.01,	0.00,	0.03,	0.04,	0.03,	0.00,	0.15,	0.04,	0.01,	0.03,	0.03,	0.01,	0.00,	1692,	1694
116,	8130,	7811,	7902,	8381,	8858,	8110,	8484,	8507,	8295,	8315,	8797,	8787,	8443,	8905,	0.04,	0.01,	0.00,	0.03,	0.04,	0.03,	0.00,	0.15,	0.04,	0.01,	0.03,	0.03,	0.00,	0.00,	1693,	1695
117,	8128,	7813,	7898,	8384,	8850,	8110,	8493,	8501,	8290,	8319,	8794,	8791,	8445,	8964,	0.04,	0.01,	0.00,	0.03,	0.04,	0.03,	0.00,	0.15,	0.04,	0.01,	0.03,	0.03,	0.00,	0.01,	1695,	1692
118,	8124,	7807,	7895,	8382,	8851,	8103,	8478,	8509,	8291,	8320,	8797,	8790,	8447,	8998,	0.04,	0.01,	0.00,	0.03,	0.04,	0.03,	0.00,	0.15,	0.04,	0.01,	0.03,	0.03,	0.00,	0.01,	1695,	1692
119,	8127,	7822,	7903,	8385,	8864,	8112,	8493,	8498,	8289,	8313,	8792,	8783,	8437,	8935,	0.04,	0.01,	0.00,	0.03,	0.04,	0.03,	0.00,	0.15,	0.04,	0.01,	0.03,	0.01,	0.00,	0.01,	1698,	1689
120,	8121,	7810,	7899,	8375,	8857,	8097,	8485,	8511,	8294,	8318,	8800,	8797,	8445,	8877,	0.04,	0.01,	0.00,	0.03,	0.04,	0.03,	0.00,	0.15,	0.04,	0.01,	0.03,	0.01,	0.01,	0.01,	1698,	1689
121,	8124,	7811,	7902,	8376,	8856,	8110,	8477,	8503,	8289,	8322,	8798,	8788,	8450,	8887,	0.04,	0.01,	0.00,	0.03,	0.04,	0.03,	0.00,	0.15,	0.04,	0.01,	0.03,	0.01,	0.01,	0.01,	1700,	1688
122,	8123,	7820,	7906,	8378,	8855,	8108,	8491,	8497,	8285,	8316,	8789,	8790,	8441,	8962,	0.04,	0.01,	0.00,	0.03,	0.04,	0.03,	0.00,	0.15,	0.04,	0.01,	0.04,	0.01,	0.01,	0.01,	1701,	1687
123,	8125,	7811,	7905,	8376,	8856,	8098,	8479,	8508,	8288,	8310,	8796,	8807,	8441,	9005,	0.04,	0.01,	0.00,	0.03,	0.04,	0.03,	0.00,	0.15,	0.04,	0.01,	0.04,	0.04,	0.01,	0.01,	1702,	1687
124,	8121,	7818,	7909,	8387,	8860,	8117,	8489,	8495,	8282,	8309,	8795,	8793,	8436,	8938,	0.04,	0.01,	0.00,	0.03,	0.04,	0.03,	0.00,	0.15,	0.04,	0.01,	0.04,	0.04,	0.01,	0.01,	1703,	1683
125,	8115,	7809,	7907,	8375,	8852,	8105,	8491,	8507,	8289,	8321,	8797,	8793,	8436,	8877,	0.04,	0.01,	0.00,	0.03,	0.04,	0.03,	0.00,	0.15,	0.04,	0.01,	0.04,	0.04,	0.01,	0.04,	1703,	1680
126,	8128,	7810,	7910,	8368,	8863,	8104,	8476,	8505,	8291,	8315,	8797,	8794,	8434,	8879,	0.04,	0.01,	0.00,	0.03,	0.04,	0.03,	0.00,	0.15,	0.04,	0.01,	0.00,	0.04,	0.01,	0.04,	1702,	1677
127,	8122,	7820,	7913,	8378,	8864,	8109,	8485,	8494,	8285,	8309,	8791,	8788,	8422,	8946,	0.04,	0.01,	0.00,	0.03,	0.04,	0.03,	0.00,	0.15,	0.04,	0.01,	0.00,	0.01,	0.01,	0.04,	1702,	1677
0,	8122,	7815,	7917,	8381,	8867,	8112,	8479,	8497,	8276,	8310,	8792,	8786,	8419,	8945,	0.04,	0.01,	0.00,	0.03,	0.04,	0.03,	0.00,	0.15,	0.04,	0.01,	0.00,	0.01,	0.01,	0.04,	1700,	1677
1,	8124,	7803,	7920,	8368,	8856,	8089,	8484,	8499,	8285,	8311,	8794,	8792,	8421,	8884,	0.04,	0.00,	0.00,	0.03,	0.04,	0.03,	0.00,	0.15,	0.04,	0.01,	0.00,	0.01,	0.01,	0.04,	1701,	1675
2,	8119,	7807,	7919,	8372,	8857,	8097,	8479,	8502,	8293,	8320,	8799,	8793,	8422,	8892,	0.04,	0.00,	0.04,	0.03,	0.04,	0.03,	0.00,	0.15,	0.04,	0.01,	0.00,	0.01,	0.01,	0.04,	1699,	1676
3,	8121,	7816,	7923,	8383,	8865,	8111,	8484,	8496,	8284,	8311,	8797,	8786,	8418,	8938,	0.04,	0.00,	0.04,	0.00,	0.04,	0.03,	0.00,	0.15,	0.04,	0.01,	0.00,	0.01,	0.01,	0.04,	1700,	1678
4,	8121,	7799,	7920,	8372,	8853,	8086,	8491,	8509,	8285,	8314,	8797,	8803,	8425,	8997,	0.04,	0.00,	0.04,	0.00,	0.04,	0.03,	0.00,	0.15,	0.04,	0.01,	0.00,	0.01,	0.01,	0.04,	1698,	1680
5,	8123,	7814,	7925,	8376,	8855,	8097,	8485,	8502,	8282,	8319,	8793,	8800,	8424,	8963,	0.04,	0.00,	0.04,	0.00,	0.04,	0.01,	0.00,	0.15,	0.04,	0.01,	0.00,	0.01,	0.01,	0.04,	1698,	1681
6,	8127,	7809,	7925,	8374,	8859,	8103,	8478,	8509,	8281,	8317,	8796,	8797,	8423,	8908,	0.04,	0.00,	0.04,	0.00,	0.04,	0.01,	0.03,	0.15,	0.04,	0.01,	0.00,	0.01,	0.01,	0.04,	1699,	1680
7,	8127,	7805,	7920,	8375,	8861,	8103,	8492,	8510,	8283,	8315,	8797,	8794,	8420,	8888,	0.04,	0.00,	0.04,	0.00,	0.04,	0.01,	0.03,	0.00,	0.04,	0.01,	0.00,	0.01,	0.01,	0.04,	1699,	1681
8,	8124,	7818,	7919,	8384,	8860,	8104,	8486,	8495,	8281,	8309,	8795,	8789,	8419,	8927,	0.04,	0.00,	0.04,	0.00,	0.04,	0.01,	0.03,	0.00,	0.03,	0.01,	0.00,	0.01,	0.01,	0.04,	1700,	1683
9,	8122,	7806,	7915,	8373,	8859,	8089,	8483,	8505,	8290,	8312,	8801,	8799,	8429,	9012,	0.04,	0.00,	0.04,	0.00,	0.04,	0.01,	0.03,	0.00,	0.03,	0.04,	0.00,	0.01,	0.01,	0.04,	1701,	1685
10,	8130,	7819,	7916,	8376,	8866,	8107,	8499,	8501,	8292,	8314,	8797,	8791,	8419,	8988,	0.04,	0.00,	0.04,	0.00,	0.04,	0.01,	0.03,	0.00,	0.03,	0.04,	0.04,	0.01,	0.01,	0.04,	1702,	1685
11,	8128,	7815,	7920,	8372,	8855,	8097,	8480,	8506,	8291,	8317,	8798,	8794,	8419,	8896,	0.04,	0.00,	0.04,	0.00,	0.04,	0.01,	0.03,	0.00,	0.03,	0.04,	0.04,	0.00,	0.01,	0.04,	1702,	1685
12,	8124,	7804,	7926,	8372,	8849,	8084,	8487,	8510,	8291,	8315,	8798,	8799,	8423,	8868,	0.04,	0.00,	0.04,	0.00,	0.04,	0.01,	0.03,	0.00,	0.03,	0.04,	0.04,	0.00,	0.04,	0.04,	1701,	1686
13,	8127,	7820,	7929,	8382,	8853,	8101,	8497,	8497,	8285,	8305,	8791,	8789,	8415,	8925,	0.04,	0.00,	0.04,	0.00,	0.04,	0.01,	0.03,	0.00,	0.03,	0.04,	0.04,	0.00,	0.04,	0.01,	1701,	1687
14,	8128,	7810,	7928,	8368,	8847,	8094,	8477,	8513,	8290,	8318,	8797,	8799,	8418,	9003,	0.04,	0.00,	0.04,	0.00,	0.04,	0.01,	0.03,	0.00,	0.03,	0.04,	0.01,	0.00,	0.04,	0.01,	1700,	1687
15,	8131,	7818,	7931,	8373,	8855,	8105,	8488,	8503,	8287,	8322,	8794,	8791,	8413,	8979,	0.04,	0.00,	0.04,	0.00,	0.04,	0.01,	0.03,	0.00,	0.03,	0.04,	0.01,	0.00,	0.04,	0.01,	1698,	1689
16,	8127,	7822,	7929,	8378,	8851,	8107,	8491,	8496,	8288,	8310,	8797,	8786,	8410,	8908,	0.04,	0.00,	0.04,	0.00,	0.04,	0.01,	0.03,	0.00,	0.03,	0.04,	0.01,	0.00,	0.04,	0.01,	1697,	1689
17,	8125,	7806,	7931,	8369,	8846,	8094,	8485,	8514,	8296,	8311,	8803,	8801,	8408,	8880,	0.04,	0.00,	0.04,	0.00,	0.04,	0.01,	0.03,	0.00,	0.03,	0.04,	0.01,	0.00,	0.04,	0.01,	1696,	1691
18,	8128,	7821,	7939,	8380,	8858,	8104,	8490,	8503,	8289,	8311,	8789,	8791,	8398,	8915,	0.04,	0.00,	0.04,	0.00,	0.04,	0.01,	0.03,	0.00,	0.03,	0.04,	0.01,	0.00,	0.04,	0.01,	1694,	1693
19,	8125,	7813,	7936,	8375,	8851,	8093,	8482,	8507,	8295,	8314,	8794,	8791,	8406,	8986,	0.04,	0.00,	0.04,	0.00,	0.04,	0.01,	0.03,	0.00,	0.03,	0.04,	0.01,	0.00,	0.04,	0.01,	1692,	1696
20,	8129,	7809,	7941,	8373,	8849,	8100,	8486,	8507,	8297,	8318,	8799,	8795,	8404,	8980,	0.04,	0.00,	0.04,	0.00,	0.04,	0.01,	0.03,	0.00,	0.03,	0.04,	0.01,	0.00,	0.04,	0.01,	1691,	1695
21,	8129,	7821,	7951,	8385,	8855,	8107,	8492,	8495,	8286,	8315,	8786,	8789,	8395,	8918,	0.04,	0.00,	0.04,	0.00,	0.04,	0.01,	0.03,	0.00,	0.03,	0.04,	0.01,	0.00,	0.04,	0.01,	1690,	1696
22,	8126,	7816,	7946,	8375,	8854,	8097,	8481,	8506,	8292,	8319,	8793,	8796,	8398,	8888,	0.04,	0.00,	0.04,	0.00,	0.04,	0.01,	0.03,	0.00,	0.03,	0.04,	0.01,	0.00,	0.04,	0.01,	1691,	1696
23,	8129,	7825,	7946,	8373,	8860,	8113,	8488,	8499,	8291,	8316,	8790,	8789,	8391,	8906,	0.04,	0.00,	0.04,	0.00,	0.04,	0.01,	0.03,	0.00,	0.03,	0.04,	0.01,	0.00,	0.04,	0.01,	1690,	1694
24,	8125,	7815,	7953,	8371,	8856,	8101,	8490,	8504,	8289,	8318,	8787,	8794,	8394,	8969,	0.04,	0.00,	0.04,	0.00,	0.04,	0.01,	0.03,	0.00,	0.03,	0.04,	0.01,	0.00,	0.04,	0.01,	1690,	1694
25,	8121,	7808,	7953,	8369,	8855,	8095,	8480,	8510,	8295,	8325,	8799,	8799,	8402,	8982,	0.04,	0.00,	0.04,	0.00,	0.04,	0.01,	0.03,	0.00,	0.03,	0.04,	0.01,	0.00,	0.04,	0.01,	1689,	1693
26,	8126,	7823,	7949,	8381,	8858,	8112,	8489,	8498,	8289,	8320,	8792,	8785,	8392,	8925,	0.04,	0.00,	0.04,	0.00,	0.04,	0.01,	0.03,	0.00,	0.03,	0.04,	0.01,	0.00,	0.04,	0.01,	1690,	1695
27,	8130,	7810,	7950,	8379,	8851,	8104,	8482,	8509,	8287,	8315,	8791,	8793,	8398,	8886,	0.04,	0.00,	0.04,	0.00,	0.04,	0.01,	0.03,	0.00,	0.03,	0.04,	0.01,	0.00,	0.04,	0.01,	1690,	1693
