=====================
  Training Session  
=====================
Name:		Ahmed Hemaly
Session:	Session_2014_05_18_66654
Date:		2014-05-18 18-32-18
Comments:	
Trials:		10
TrialsPerClass:	5
BlankTime:	2
SteadyTime:	1
TrainingTime:	4
Triggers:	10362, 11251, 12139, 13027, 13915, 14804, 15692, 16580, 17469, 18357
ClassesTypes:	1, 1, 1, 1, 2, 1, 2, 2, 2, 2
ClassesNames:	RIGHT, LEFT

RawData:
Count,	F3,	FC5,	AF3,	F7,	T7,	P7,	O1,	O2,	P8,	T8,	F8,	AF4,	FC6,	F4,	Q_F3,	Q_FC5,	Q_AF3,	Q_F7,	Q_T7,	Q_P7,	Q_O1,	Q_O2,	Q_P8,	Q_T8,	Q_F8,	Q_AF4,	Q_FC6,	Q_F4,	GyroX,	GyroY
61,	8121,	7786,	8015,	8231,	8647,	8467,	8493,	8331,	8210,	8211,	8711,	8702,	8269,	8887,	14.58,	14.40,	13.48,	0.00,	0.00,	0.00,	0.00,	0.00,	0.00,	0.00,	0.00,	0.00,	0.00,	0.00,	1697,	1699
62,	8136,	7797,	8020,	8241,	8659,	8451,	8484,	8331,	8188,	8185,	8698,	8700,	8243,	8893,	14.58,	14.40,	13.48,	0.00,	0.00,	0.00,	0.00,	0.00,	0.00,	0.00,	0.00,	0.00,	0.00,	0.00,	1697,	1700
63,	8132,	7775,	7999,	8245,	8659,	8439,	8473,	8312,	8185,	8194,	8680,	8678,	8203,	8875,	14.58,	14.40,	13.48,	0.00,	0.00,	0.00,	0.00,	0.00,	0.00,	0.00,	0.00,	0.00,	0.00,	0.00,	1698,	1700
64,	8103,	7770,	7981,	8248,	8643,	8453,	8464,	8282,	8172,	8199,	8670,	8654,	8214,	8838,	14.58,	14.40,	13.48,	0.00,	0.00,	0.00,	0.00,	0.00,	0.00,	0.00,	0.00,	0.00,	0.00,	0.00,	1698,	1702
65,	8098,	7785,	7982,	8250,	8658,	8464,	8460,	8276,	8150,	8173,	8659,	8648,	8220,	8832,	14.58,	14.40,	13.48,	1.76,	0.00,	0.00,	0.00,	0.00,	0.00,	0.00,	0.00,	0.00,	0.00,	0.00,	1700,	1701
66,	8103,	7769,	7975,	8243,	8679,	8462,	8458,	8274,	8141,	8148,	8636,	8629,	8167,	8838,	14.58,	14.40,	13.48,	1.76,	0.00,	0.00,	0.00,	0.00,	0.00,	0.00,	0.00,	0.00,	0.00,	0.00,	1698,	1702
67,	8101,	7748,	7964,	8236,	8660,	8473,	8471,	8270,	8149,	8154,	8607,	8601,	8148,	8821,	14.58,	14.40,	13.48,	1.76,	0.41,	2.03,	2.28,	12.41,	12.07,	12.30,	14.86,	13.85,	14.65,	13.59,	1700,	1702
68,	8097,	7760,	7958,	8232,	8638,	8486,	8496,	8289,	8172,	8177,	8601,	8598,	8177,	8811,	14.58,	14.40,	13.48,	1.76,	0.41,	2.03,	2.28,	12.41,	12.07,	12.30,	14.86,	13.85,	14.65,	13.59,	1700,	1699
69,	8084,	7784,	7954,	8230,	8644,	8472,	8493,	8314,	8205,	8201,	8632,	8618,	8199,	8836,	14.58,	14.40,	13.48,	1.76,	0.41,	2.03,	2.28,	12.41,	12.07,	12.30,	14.86,	13.85,	14.65,	13.59,	1700,	1699
70,	8091,	7804,	7967,	8244,	8650,	8465,	8478,	8324,	8220,	8218,	8664,	8645,	8230,	8873,	14.58,	14.40,	13.48,	1.76,	0.41,	2.03,	2.28,	12.41,	12.07,	12.30,	14.86,	13.85,	14.65,	13.59,	1701,	1696
71,	8125,	7806,	7998,	8270,	8633,	8473,	8482,	8320,	8221,	8228,	8675,	8670,	8247,	8890,	14.58,	14.40,	13.48,	1.76,	0.41,	2.03,	2.28,	12.41,	12.07,	12.30,	14.86,	13.85,	14.65,	13.59,	1701,	1696
72,	8123,	7787,	7997,	8285,	8620,	8467,	8491,	8314,	8218,	8229,	8670,	8665,	8235,	8881,	14.58,	14.40,	13.48,	1.76,	0.41,	2.03,	2.28,	12.41,	12.07,	12.30,	14.86,	13.85,	14.65,	13.59,	1702,	1694
73,	8099,	7774,	7980,	8259,	8621,	8458,	8486,	8321,	8219,	8220,	8668,	8644,	8245,	8880,	14.58,	14.40,	13.48,	1.76,	0.41,	2.03,	2.28,	12.41,	12.07,	12.30,	14.86,	13.85,	14.65,	13.59,	1702,	1696
74,	8112,	7766,	7989,	8226,	8614,	8463,	8483,	8336,	8237,	8235,	8682,	8648,	8264,	8889,	14.58,	14.40,	13.48,	1.76,	0.41,	2.03,	2.28,	12.41,	12.07,	12.30,	14.86,	13.85,	14.65,	13.59,	1703,	1696
75,	8133,	7761,	7999,	8245,	8597,	8457,	8477,	8334,	8237,	8257,	8698,	8662,	8273,	8882,	14.58,	14.40,	13.48,	1.76,	0.41,	2.03,	2.28,	12.41,	12.07,	12.30,	14.86,	13.85,	14.65,	13.59,	1703,	1696
76,	8142,	7779,	8002,	8257,	8575,	8450,	8480,	8324,	8213,	8226,	8690,	8657,	8281,	8890,	14.58,	14.40,	13.48,	1.76,	0.41,	2.03,	2.28,	12.41,	12.07,	12.30,	14.86,	13.85,	14.65,	13.59,	1704,	1695
77,	8135,	7793,	7990,	8251,	8564,	8462,	8497,	8314,	8203,	8185,	8659,	8638,	8252,	8894,	14.58,	14.40,	13.48,	1.76,	0.41,	2.03,	2.28,	12.41,	12.07,	12.30,	14.86,	13.85,	14.65,	13.59,	1703,	1693
78,	8102,	7791,	7964,	8278,	8589,	8464,	8483,	8292,	8201,	8202,	8647,	8611,	8212,	8847,	14.58,	14.40,	13.48,	1.76,	0.41,	2.03,	2.28,	12.41,	12.07,	12.30,	14.83,	13.85,	14.65,	13.59,	1704,	1692
79,	8078,	7785,	7952,	8285,	8617,	8462,	8463,	8279,	8205,	8237,	8665,	8596,	8226,	8807,	14.58,	14.40,	13.48,	1.76,	0.41,	2.03,	2.28,	12.41,	12.07,	12.30,	14.83,	13.85,	14.65,	13.59,	1702,	1691
80,	8079,	7778,	7949,	8249,	8596,	8476,	8473,	8291,	8216,	8223,	8671,	8597,	8244,	8821,	14.58,	14.40,	13.48,	1.76,	0.41,	2.03,	2.28,	12.41,	12.07,	12.30,	14.83,	13.85,	14.65,	13.59,	1702,	1692
81,	8078,	7778,	7947,	8246,	8567,	8475,	8481,	8294,	8210,	8201,	8653,	8589,	8233,	8834,	14.58,	14.40,	13.48,	1.76,	0.41,	2.03,	2.28,	12.41,	12.07,	12.30,	14.83,	13.85,	14.65,	13.59,	1702,	1691
82,	8070,	7775,	7948,	8262,	8571,	8469,	8481,	8285,	8193,	8208,	8642,	8574,	8237,	8821,	14.58,	14.40,	13.48,	1.76,	0.41,	2.03,	2.28,	12.41,	12.07,	12.30,	14.83,	13.85,	14.67,	13.59,	1701,	1692
83,	8069,	7759,	7943,	8240,	8571,	8481,	8491,	8288,	8197,	8211,	8639,	8565,	8236,	8813,	14.58,	14.40,	13.48,	1.76,	0.41,	2.03,	2.28,	12.41,	12.07,	12.30,	14.83,	13.85,	14.67,	13.59,	1701,	1691
84,	8069,	7752,	7939,	8223,	8554,	8483,	8498,	8293,	8205,	8199,	8646,	8564,	8231,	8822,	14.58,	14.40,	13.48,	1.76,	0.41,	2.03,	2.28,	12.41,	12.07,	12.30,	14.83,	13.85,	14.67,	13.59,	1701,	1691
85,	8072,	7754,	7949,	8228,	8550,	8477,	8499,	8285,	8192,	8192,	8659,	8576,	8252,	8838,	14.58,	14.40,	13.48,	1.76,	0.41,	2.03,	2.28,	12.41,	12.07,	12.30,	14.83,	13.85,	14.67,	13.61,	1700,	1691
86,	8079,	7754,	7962,	8232,	8548,	8472,	8493,	8267,	8176,	8190,	8653,	8583,	8265,	8841,	14.58,	14.40,	13.48,	1.76,	0.41,	2.03,	2.28,	12.41,	12.07,	12.30,	14.83,	13.85,	14.67,	13.61,	1700,	1692
87,	8075,	7762,	7956,	8242,	8531,	8456,	8473,	8255,	8168,	8179,	8628,	8562,	8242,	8824,	14.58,	14.40,	13.48,	1.76,	0.41,	2.03,	2.28,	12.41,	12.07,	12.30,	14.83,	13.82,	14.67,	13.61,	1700,	1692
88,	8067,	7762,	7943,	8239,	8531,	8443,	8459,	8248,	8157,	8154,	8606,	8538,	8222,	8805,	14.58,	14.40,	13.48,	1.76,	0.41,	2.03,	2.28,	12.41,	12.07,	12.30,	14.83,	13.82,	14.68,	13.61,	1700,	1693
89,	8072,	7753,	7945,	8234,	8550,	8449,	8466,	8238,	8143,	8139,	8595,	8537,	8229,	8805,	14.58,	14.40,	13.48,	1.76,	0.41,	2.03,	2.28,	12.41,	12.07,	12.30,	14.83,	13.82,	14.68,	13.60,	1700,	1691
90,	8090,	7766,	7962,	8257,	8570,	8464,	8480,	8241,	8148,	8152,	8614,	8553,	8250,	8828,	14.58,	14.40,	13.48,	1.76,	0.41,	2.03,	2.28,	12.41,	12.07,	12.30,	14.81,	13.82,	14.68,	13.60,	1700,	1690
91,	8098,	7775,	7969,	8276,	8576,	8471,	8486,	8252,	8155,	8159,	8636,	8556,	8253,	8838,	14.58,	14.40,	13.48,	1.76,	0.41,	2.03,	2.28,	12.41,	12.07,	12.30,	14.81,	13.84,	14.68,	13.60,	1700,	1688
92,	8084,	7757,	7962,	8267,	8558,	8464,	8479,	8254,	8146,	8142,	8618,	8535,	8238,	8820,	14.58,	14.40,	13.48,	1.76,	0.41,	2.03,	2.28,	12.41,	12.07,	12.30,	14.81,	13.84,	14.68,	13.60,	1699,	1688
93,	8080,	7751,	7961,	8263,	8549,	8447,	8464,	8242,	8142,	8145,	8593,	8518,	8233,	8814,	14.58,	14.40,	13.48,	1.76,	0.41,	2.03,	2.28,	12.41,	12.07,	12.30,	14.81,	13.84,	14.68,	13.57,	1699,	1688
94,	8093,	7760,	7962,	8267,	8557,	8440,	8462,	8241,	8154,	8167,	8596,	8516,	8235,	8821,	14.58,	14.40,	13.48,	1.76,	0.41,	2.03,	2.28,	12.41,	12.07,	12.30,	14.84,	13.84,	14.68,	13.57,	1699,	1689
95,	8099,	7766,	7960,	8270,	8564,	8455,	8482,	8249,	8157,	8176,	8602,	8519,	8237,	8817,	14.58,	14.40,	13.48,	1.76,	0.41,	2.03,	2.28,	12.41,	12.07,	12.30,	14.84,	13.84,	14.68,	13.57,	1700,	1688
96,	8094,	7764,	7971,	8276,	8568,	8461,	8485,	8231,	8133,	8156,	8597,	8520,	8236,	8819,	14.58,	14.40,	13.48,	1.76,	0.41,	2.03,	2.28,	12.41,	12.07,	12.30,	14.84,	13.84,	14.65,	13.57,	1698,	1689
97,	8094,	7752,	7976,	8276,	8576,	8447,	8465,	8201,	8109,	8131,	8591,	8506,	8231,	8823,	14.58,	14.40,	13.48,	1.76,	0.41,	2.03,	2.28,	12.41,	12.07,	12.30,	14.84,	13.84,	14.65,	13.59,	1700,	1689
98,	8094,	7740,	7963,	8269,	8583,	8440,	8472,	8217,	8130,	8142,	8588,	8485,	8234,	8816,	14.58,	14.40,	13.48,	1.76,	0.41,	2.03,	2.28,	12.41,	12.07,	12.30,	14.81,	13.84,	14.65,	13.59,	1700,	1687
99,	8095,	7748,	7971,	8275,	8591,	8444,	8488,	8259,	8169,	8165,	8602,	8495,	8251,	8823,	14.58,	14.40,	13.48,	1.76,	0.41,	2.03,	2.28,	12.41,	12.07,	12.30,	14.81,	13.81,	14.65,	13.59,	1700,	1688
100,	8105,	7771,	8000,	8298,	8595,	8441,	8481,	8257,	8165,	8169,	8632,	8517,	8273,	8846,	14.58,	14.40,	13.48,	1.76,	0.41,	2.03,	2.28,	12.41,	12.07,	12.30,	14.81,	13.81,	14.65,	13.59,	1701,	1685
101,	8109,	7775,	8005,	8307,	8596,	8449,	8488,	8238,	8150,	8177,	8629,	8503,	8270,	8851,	14.58,	14.40,	13.48,	1.76,	0.41,	2.03,	2.28,	12.41,	12.07,	12.30,	14.81,	13.81,	14.65,	13.57,	1700,	1686
102,	8096,	7761,	7995,	8297,	8620,	8465,	8509,	8246,	8166,	8191,	8605,	8483,	8251,	8839,	14.58,	14.40,	13.48,	1.76,	0.41,	2.03,	2.28,	12.41,	12.07,	12.30,	14.83,	13.81,	14.65,	13.57,	1701,	1685
103,	8099,	7766,	8004,	8300,	8630,	8456,	8499,	8257,	8179,	8191,	8628,	8505,	8260,	8850,	14.58,	14.40,	13.48,	1.76,	0.41,	2.03,	2.28,	12.41,	12.07,	12.30,	14.83,	13.85,	14.65,	13.57,	1700,	1684
104,	8120,	7780,	8025,	8317,	8609,	8439,	8475,	8240,	8168,	8194,	8671,	8534,	8292,	8868,	14.58,	14.40,	13.48,	1.76,	0.41,	2.03,	2.28,	12.41,	12.07,	12.30,	14.83,	13.85,	14.68,	13.57,	1699,	1683
105,	8120,	7776,	8030,	8313,	8628,	8446,	8478,	8222,	8161,	8199,	8668,	8522,	8290,	8859,	14.58,	14.40,	13.48,	1.76,	0.41,	2.03,	2.28,	12.41,	12.07,	12.30,	14.83,	13.85,	14.68,	13.60,	1699,	1682
106,	8105,	7765,	8021,	8293,	8675,	8455,	8489,	8216,	8157,	8188,	8637,	8496,	8264,	8845,	14.58,	14.40,	13.48,	1.76,	0.41,	2.03,	2.28,	12.41,	12.07,	12.30,	14.83,	13.85,	14.68,	13.60,	1700,	1682
107,	8114,	7759,	8032,	8294,	8679,	8438,	8477,	8201,	8133,	8178,	8634,	8504,	8263,	8860,	14.58,	14.40,	13.48,	1.76,	0.41,	2.03,	2.28,	12.41,	12.07,	12.30,	14.83,	13.82,	14.68,	13.60,	1698,	1683
108,	8135,	7768,	8055,	8311,	8653,	8426,	8457,	8180,	8116,	8178,	8648,	8528,	8279,	8890,	14.58,	14.40,	13.48,	1.76,	0.41,	2.03,	2.28,	12.41,	12.07,	12.30,	14.83,	13.82,	14.65,	13.60,	1699,	1685
109,	8136,	7784,	8061,	8309,	8662,	8431,	8453,	8169,	8120,	8170,	8643,	8522,	8269,	8885,	14.58,	14.40,	13.48,	1.76,	0.41,	2.03,	2.28,	12.41,	12.07,	12.30,	14.83,	13.82,	14.65,	13.59,	1699,	1686
110,	8119,	7782,	8050,	8291,	8692,	8432,	8462,	8176,	8127,	8163,	8628,	8497,	8247,	8857,	14.58,	14.40,	13.48,	1.76,	0.41,	2.03,	2.28,	12.41,	12.07,	12.30,	14.84,	13.82,	14.65,	13.59,	1700,	1688
111,	8103,	7768,	8042,	8283,	8681,	8429,	8458,	8182,	8129,	8164,	8624,	8488,	8246,	8848,	14.58,	14.40,	13.48,	1.76,	0.41,	2.03,	2.28,	12.41,	12.07,	12.30,	14.84,	13.84,	14.65,	13.59,	1700,	1686
112,	8095,	7757,	8043,	8269,	8635,	8432,	8447,	8181,	8119,	8166,	8600,	8474,	8237,	8852,	14.58,	14.40,	13.48,	1.76,	0.41,	2.03,	2.28,	12.41,	12.07,	12.30,	14.84,	13.84,	14.68,	13.59,	1698,	1687
113,	8097,	7750,	8044,	8253,	8643,	8437,	8450,	8178,	8109,	8166,	8581,	8459,	8222,	8853,	14.58,	14.40,	13.48,	1.76,	0.41,	2.03,	2.28,	12.41,	12.07,	12.30,	14.84,	13.84,	14.68,	13.60,	1700,	1687
114,	8096,	7749,	8048,	8254,	8693,	8433,	8465,	8185,	8124,	8179,	8639,	8487,	8252,	8866,	14.58,	14.40,	13.48,	1.76,	0.41,	2.03,	2.28,	12.41,	12.07,	12.30,	14.83,	13.84,	14.68,	13.60,	1699,	1688
115,	8094,	7750,	8058,	8239,	8700,	8433,	8471,	8208,	8151,	8207,	8708,	8526,	8301,	8880,	14.58,	14.40,	13.48,	1.76,	0.41,	2.03,	2.28,	12.41,	12.07,	12.30,	14.83,	13.85,	14.68,	13.60,	1699,	1689
116,	8097,	7741,	8069,	8213,	8704,	8442,	8476,	8219,	8157,	8226,	8722,	8530,	8308,	8876,	14.58,	14.40,	13.48,	1.76,	0.41,	2.03,	2.28,	12.41,	12.07,	12.30,	14.83,	13.85,	14.64,	13.60,	1698,	1690
117,	8097,	7737,	8078,	8224,	8732,	8446,	8476,	8202,	8151,	8224,	8724,	8529,	8293,	8878,	14.58,	14.40,	13.48,	1.76,	0.41,	2.03,	2.28,	12.41,	12.07,	12.30,	14.83,	13.85,	14.64,	13.57,	1699,	1692
118,	8096,	7738,	8085,	8244,	8730,	8445,	8461,	8195,	8151,	8218,	8727,	8537,	8294,	8891,	14.58,	14.40,	13.48,	1.76,	0.41,	2.03,	2.28,	12.41,	12.07,	12.30,	14.83,	13.85,	14.64,	13.57,	1698,	1694
119,	8097,	7746,	8086,	8233,	8719,	8444,	8457,	8216,	8157,	8220,	8721,	8539,	8296,	8890,	14.58,	14.40,	13.48,	1.76,	0.41,	2.03,	2.28,	12.41,	12.07,	12.30,	14.83,	13.82,	14.64,	13.57,	1699,	1697
120,	8103,	7749,	8086,	8226,	8741,	8449,	8473,	8225,	8163,	8223,	8730,	8539,	8298,	8893,	14.58,	14.40,	13.48,	1.76,	0.41,	2.03,	2.28,	12.41,	12.07,	12.30,	14.83,	13.82,	14.65,	13.57,	1699,	1697
121,	8099,	7746,	8090,	8231,	8744,	8460,	8487,	8232,	8180,	8238,	8737,	8540,	8306,	8903,	14.58,	14.40,	13.48,	1.76,	0.41,	2.03,	2.28,	12.41,	12.07,	12.30,	14.83,	13.82,	14.65,	13.61,	1699,	1700
122,	8096,	7748,	8100,	8228,	8728,	8458,	8485,	8253,	8196,	8256,	8732,	8547,	8317,	8906,	14.58,	14.40,	13.48,	1.76,	0.41,	2.03,	2.28,	12.41,	12.07,	12.30,	14.83,	13.82,	14.65,	13.61,	1699,	1699
123,	8114,	7753,	8125,	8237,	8742,	8441,	8478,	8254,	8189,	8264,	8749,	8565,	8325,	8912,	14.58,	14.40,	13.48,	1.76,	0.41,	2.03,	2.28,	12.41,	12.07,	12.30,	14.83,	13.84,	14.65,	13.61,	1697,	1701
124,	8130,	7754,	8141,	8246,	8759,	8440,	8483,	8248,	8187,	8274,	8773,	8582,	8342,	8926,	14.58,	14.40,	13.48,	1.76,	0.41,	2.03,	2.28,	12.41,	12.07,	12.30,	14.83,	13.84,	14.68,	13.61,	1699,	1700
125,	8126,	7751,	8138,	8243,	8742,	8457,	8492,	8258,	8198,	8273,	8768,	8594,	8352,	8941,	14.58,	14.40,	13.48,	1.76,	0.41,	2.03,	2.28,	12.41,	12.07,	12.30,	14.83,	13.84,	14.68,	13.57,	1698,	1700
126,	8123,	7749,	8135,	8241,	8738,	8464,	8493,	8257,	8192,	8256,	8755,	8594,	8330,	8940,	14.58,	14.40,	13.48,	1.76,	0.41,	2.03,	2.28,	12.41,	12.07,	12.30,	14.83,	13.84,	14.68,	13.57,	1697,	1700
127,	8130,	7750,	8137,	8242,	8765,	8460,	8490,	8238,	8171,	8248,	8755,	8584,	8314,	8927,	14.58,	14.40,	13.48,	1.76,	0.41,	2.03,	2.28,	12.41,	12.07,	12.30,	14.83,	13.84,	14.68,	13.57,	1697,	1699
0,	8108,	7742,	8117,	8231,	8774,	8455,	8482,	8229,	8181,	8248,	8753,	8588,	8326,	8922,	14.61,	14.40,	13.48,	1.76,	0.41,	2.03,	2.28,	12.41,	12.07,	12.30,	14.83,	13.84,	14.68,	13.57,	1697,	1700
1,	8106,	7731,	8115,	8234,	8766,	8443,	8475,	8227,	8169,	8252,	8755,	8586,	8318,	8920,	14.61,	14.44,	13.48,	1.76,	0.41,	2.03,	2.28,	12.41,	12.07,	12.30,	14.83,	13.84,	14.68,	13.57,	1697,	1701
2,	8104,	7717,	8105,	8204,	8770,	8439,	8462,	8219,	8156,	8250,	8752,	8569,	8313,	8911,	14.61,	14.44,	13.48,	1.76,	0.41,	2.03,	2.28,	12.41,	12.07,	12.30,	14.83,	13.84,	14.68,	13.57,	1697,	1699
3,	8098,	7711,	8102,	8192,	8781,	8440,	8452,	8221,	8163,	8248,	8743,	8559,	8309,	8907,	14.61,	14.44,	13.48,	1.72,	0.41,	2.03,	2.28,	12.41,	12.07,	12.30,	14.83,	13.84,	14.68,	13.57,	1696,	1698
4,	8097,	7726,	8120,	8238,	8800,	8439,	8449,	8228,	8173,	8254,	8730,	8562,	8298,	8906,	14.61,	14.44,	13.48,	1.72,	0.43,	2.03,	2.28,	12.41,	12.07,	12.30,	14.83,	13.84,	14.68,	13.57,	1697,	1695
5,	8102,	7745,	8132,	8282,	8810,	8444,	8444,	8216,	8159,	8242,	8698,	8561,	8284,	8896,	14.61,	14.44,	13.48,	1.72,	0.43,	2.01,	2.28,	12.41,	12.07,	12.30,	14.83,	13.84,	14.68,	13.57,	1695,	1695
6,	8108,	7745,	8134,	8286,	8799,	8448,	8445,	8207,	8143,	8211,	8652,	8549,	8261,	8893,	14.61,	14.44,	13.48,	1.72,	0.43,	2.01,	2.27,	12.41,	12.07,	12.30,	14.83,	13.84,	14.68,	13.57,	1697,	1696
7,	8114,	7739,	8141,	8288,	8801,	8436,	8452,	8214,	8145,	8197,	8630,	8541,	8244,	8902,	14.61,	14.44,	13.48,	1.72,	0.43,	2.01,	2.27,	12.39,	12.07,	12.30,	14.83,	13.84,	14.68,	13.57,	1696,	1698
8,	8109,	7744,	8142,	8304,	8817,	8419,	8439,	8202,	8129,	8193,	8636,	8538,	8244,	8900,	14.61,	14.44,	13.48,	1.72,	0.43,	2.01,	2.27,	12.39,	12.31,	12.30,	14.83,	13.84,	14.68,	13.57,	1697,	1701
9,	8102,	7753,	8146,	8312,	8809,	8418,	8427,	8179,	8105,	8189,	8649,	8548,	8252,	8891,	14.61,	14.44,	13.48,	1.72,	0.43,	2.01,	2.27,	12.39,	12.31,	12.31,	14.83,	13.84,	14.68,	13.57,	1698,	1700
10,	8105,	7749,	8153,	8309,	8804,	8428,	8444,	8194,	8122,	8206,	8664,	8568,	8266,	8905,	14.61,	14.44,	13.48,	1.72,	0.43,	2.01,	2.27,	12.39,	12.31,	12.31,	14.81,	13.84,	14.68,	13.57,	1697,	1698
11,	8101,	7732,	8135,	8292,	8825,	8432,	8457,	8225,	8144,	8225,	8664,	8568,	8272,	8917,	14.61,	14.44,	13.48,	1.72,	0.43,	2.01,	2.27,	12.39,	12.31,	12.31,	14.81,	13.82,	14.68,	13.57,	1698,	1695
12,	8094,	7723,	8114,	8282,	8837,	8426,	8445,	8234,	8139,	8217,	8651,	8552,	8266,	8906,	14.61,	14.44,	13.48,	1.72,	0.43,	2.01,	2.27,	12.39,	12.31,	12.31,	14.81,	13.82,	14.65,	13.57,	1698,	1695
13,	8098,	7725,	8115,	8290,	8836,	8430,	8446,	8237,	8148,	8210,	8655,	8552,	8272,	8899,	14.61,	14.44,	13.48,	1.72,	0.43,	2.01,	2.27,	12.39,	12.31,	12.31,	14.81,	13.82,	14.65,	13.60,	1699,	1695
14,	8100,	7732,	8125,	8290,	8834,	8441,	8464,	8245,	8170,	8236,	8675,	8571,	8288,	8920,	14.61,	14.44,	13.48,	1.72,	0.43,	2.01,	2.27,	12.39,	12.31,	12.31,	14.81,	13.82,	14.65,	13.60,	1699,	1697
15,	8105,	7740,	8132,	8290,	8843,	8444,	8464,	8246,	8163,	8253,	8681,	8580,	8291,	8935,	14.61,	14.44,	13.48,	1.72,	0.43,	2.01,	2.27,	12.39,	12.31,	12.31,	14.81,	13.81,	14.65,	13.60,	1699,	1695
16,	8113,	7734,	8129,	8291,	8850,	8442,	8463,	8251,	8156,	8235,	8670,	8575,	8285,	8932,	14.61,	14.44,	13.48,	1.72,	0.43,	2.01,	2.27,	12.39,	12.31,	12.31,	14.81,	13.81,	14.65,	13.60,	1699,	1695
17,	8111,	7730,	8128,	8280,	8829,	8452,	8481,	8266,	8171,	8232,	8674,	8585,	8291,	8930,	14.61,	14.44,	13.48,	1.72,	0.43,	2.01,	2.27,	12.39,	12.31,	12.31,	14.81,	13.81,	14.65,	13.60,	1699,	1695
18,	8116,	7743,	8141,	8285,	8817,	8457,	8487,	8266,	8174,	8253,	8702,	8607,	8311,	8943,	14.61,	14.44,	13.48,	1.72,	0.43,	2.01,	2.27,	12.39,	12.31,	12.31,	14.81,	13.81,	14.65,	13.60,	1700,	1696
19,	8134,	7759,	8154,	8313,	8863,	8448,	8475,	8260,	8176,	8259,	8710,	8618,	8326,	8955,	14.61,	14.44,	13.48,	1.72,	0.43,	2.01,	2.27,	12.39,	12.31,	12.31,	14.81,	13.81,	14.65,	13.60,	1700,	1695
20,	8142,	7766,	8163,	8325,	8914,	8460,	8479,	8264,	8186,	8266,	8696,	8620,	8316,	8949,	14.61,	14.44,	13.48,	1.72,	0.43,	2.01,	2.27,	12.39,	12.31,	12.31,	14.81,	13.81,	14.65,	13.60,	1701,	1696
21,	8135,	7774,	8174,	8324,	8922,	8484,	8485,	8256,	8181,	8285,	8695,	8630,	8312,	8948,	14.61,	14.44,	13.48,	1.72,	0.43,	2.01,	2.27,	12.39,	12.31,	12.31,	14.81,	13.81,	14.65,	13.60,	1701,	1695
22,	8134,	7778,	8174,	8327,	8915,	8481,	8470,	8241,	8176,	8293,	8710,	8639,	8332,	8965,	14.61,	14.44,	13.48,	1.72,	0.43,	2.01,	2.27,	12.39,	12.31,	12.31,	14.81,	13.81,	14.65,	13.60,	1701,	1695
23,	8136,	7771,	8157,	8318,	8912,	8469,	8461,	8234,	8170,	8270,	8701,	8627,	8335,	8965,	14.61,	14.44,	13.48,	1.72,	0.43,	2.01,	2.27,	12.39,	12.31,	12.31,	14.81,	13.81,	14.65,	13.60,	1702,	1693
24,	8120,	7749,	8147,	8302,	8902,	8470,	8466,	8222,	8148,	8222,	8668,	8605,	8297,	8934,	14.61,	14.44,	13.48,	1.72,	0.43,	2.01,	2.27,	12.39,	12.31,	12.31,	14.81,	13.81,	14.65,	13.60,	1701,	1693
25,	8086,	7722,	8128,	8273,	8886,	8483,	8470,	8219,	8136,	8193,	8636,	8582,	8256,	8906,	14.61,	14.44,	13.48,	1.72,	0.43,	2.01,	2.27,	12.39,	12.31,	12.31,	14.81,	13.81,	14.65,	13.60,	1704,	1694
26,	8070,	7707,	8101,	8226,	8870,	8492,	8474,	8244,	8157,	8211,	8607,	8564,	8240,	8901,	14.61,	14.44,	13.48,	1.72,	0.43,	2.01,	2.27,	12.39,	12.31,	12.31,	14.81,	13.81,	14.65,	13.60,	1703,	1693
27,	8089,	7712,	8109,	8234,	8864,	8482,	8475,	8268,	8185,	8247,	8618,	8581,	8257,	8921,	14.61,	14.44,	13.48,	1.72,	0.43,	2.01,	2.27,	12.39,	12.31,	12.31,	14.81,	13.81,	14.65,	13.60,	1704,	1694
28,	8104,	7729,	8148,	8287,	8848,	8453,	8456,	8269,	8191,	8264,	8668,	8624,	8293,	8949,	14.61,	14.44,	13.48,	1.72,	0.43,	2.01,	2.27,	12.39,	12.31,	12.31,	14.81,	13.81,	14.65,	13.60,	1705,	1693
29,	8107,	7743,	8176,	8293,	8827,	8437,	8435,	8262,	8182,	8263,	8693,	8651,	8311,	8955,	14.61,	14.44,	13.48,	1.72,	0.43,	2.01,	2.27,	12.39,	12.31,	12.31,	14.81,	13.81,	14.65,	13.60,	1705,	1695
30,	8123,	7744,	8184,	8288,	8849,	8445,	8429,	8253,	8173,	8264,	8698,	8668,	8314,	8952,	14.61,	14.44,	13.48,	1.72,	0.43,	2.01,	2.27,	12.39,	12.31,	12.31,	14.81,	13.81,	14.65,	13.60,	1705,	1696
31,	8135,	7747,	8189,	8312,	8894,	8447,	8430,	8245,	8175,	8265,	8712,	8687,	8322,	8958,	14.61,	14.44,	13.48,	1.72,	0.43,	2.01,	2.27,	12.39,	12.31,	12.31,	14.81,	13.81,	14.65,	13.60,	1706,	1697
32,	8122,	7750,	8188,	8308,	8894,	8447,	8432,	8240,	8167,	8256,	8708,	8681,	8317,	8954,	14.61,	14.44,	13.48,	1.72,	0.43,	2.01,	2.27,	12.39,	12.31,	12.31,	14.81,	13.81,	14.65,	13.60,	1707,	1697
33,	8105,	7745,	8182,	8288,	8871,	8455,	8439,	8244,	8155,	8241,	8691,	8678,	8308,	8948,	14.61,	14.44,	13.48,	1.72,	0.43,	2.01,	2.27,	12.39,	12.31,	12.31,	14.81,	13.81,	14.65,	13.60,	1706,	1698
34,	8103,	7741,	8186,	8296,	8881,	8450,	8441,	8250,	8161,	8248,	8699,	8700,	8317,	8964,	14.61,	14.44,	13.48,	1.72,	0.43,	2.01,	2.27,	12.39,	12.31,	12.31,	14.81,	13.81,	14.65,	13.60,	1708,	1696
35,	8107,	7740,	8181,	8290,	8887,	8437,	8447,	8260,	8167,	8260,	8707,	8706,	8322,	8977,	14.61,	14.44,	13.48,	1.72,	0.43,	2.01,	2.27,	12.39,	12.31,	12.31,	14.81,	13.81,	14.65,	13.60,	1707,	1695
36,	8105,	7729,	8165,	8263,	8865,	8443,	8465,	8274,	8156,	8241,	8689,	8685,	8314,	8967,	14.61,	14.44,	13.48,	1.72,	0.43,	2.01,	2.27,	12.39,	12.31,	12.31,	14.81,	13.81,	14.65,	13.60,	1709,	1695
37,	8098,	7728,	8167,	8264,	8869,	8451,	8467,	8284,	8147,	8228,	8677,	8682,	8317,	8954,	14.61,	14.44,	13.48,	1.72,	0.43,	2.01,	2.27,	12.39,	12.31,	12.31,	14.81,	13.81,	14.65,	13.60,	1708,	1695
38,	8098,	7741,	8176,	8278,	8876,	8448,	8456,	8287,	8156,	8241,	8676,	8690,	8307,	8953,	14.61,	14.44,	13.48,	1.72,	0.43,	2.01,	2.27,	12.39,	12.31,	12.31,	14.81,	13.81,	14.65,	13.60,	1707,	1698
39,	8099,	7732,	8174,	8273,	8858,	8446,	8455,	8288,	8167,	8248,	8665,	8680,	8275,	8952,	14.61,	14.44,	13.48,	1.72,	0.43,	2.01,	2.27,	12.39,	12.31,	12.31,	14.81,	13.81,	14.65,	13.60,	1708,	1698
40,	8089,	7721,	8167,	8263,	8863,	8450,	8461,	8284,	8163,	8228,	8642,	8667,	8277,	8942,	14.61,	14.44,	13.48,	1.72,	0.43,	2.01,	2.27,	12.39,	12.31,	12.31,	14.81,	13.81,	14.65,	13.60,	1706,	1701
41,	8072,	7731,	8159,	8264,	8891,	8461,	8462,	8278,	8153,	8217,	8633,	8666,	8300,	8929,	14.61,	14.44,	13.48,	1.72,	0.43,	2.01,	2.27,	12.39,	12.31,	12.31,	14.81,	13.81,	14.65,	13.60,	1706,	1699
42,	8068,	7728,	8155,	8259,	8890,	8471,	8465,	8284,	8167,	8238,	8641,	8659,	8277,	8918,	14.61,	14.44,	13.48,	1.72,	0.43,	2.01,	2.27,	12.39,	12.31,	12.31,	14.81,	13.81,	14.65,	13.60,	1706,	1698
43,	8077,	7708,	8158,	8244,	8888,	8470,	8468,	8298,	8186,	8259,	8641,	8652,	8244,	8907,	14.61,	14.44,	13.48,	1.72,	0.43,	2.01,	2.27,	12.39,	12.31,	12.31,	14.81,	13.81,	14.65,	13.60,	1705,	1696
44,	8072,	7712,	8169,	8248,	8900,	8459,	8460,	8298,	8173,	8241,	8622,	8658,	8245,	8908,	14.61,	14.44,	13.48,	1.72,	0.43,	2.01,	2.27,	12.39,	12.31,	12.31,	14.81,	13.81,	14.65,	13.60,	1705,	1696
45,	8066,	7722,	8179,	8260,	8888,	8447,	8453,	8288,	8165,	8224,	8614,	8669,	8262,	8925,	14.61,	14.44,	13.48,	1.72,	0.43,	2.01,	2.27,	12.39,	12.31,	12.31,	14.81,	13.81,	14.65,	13.60,	1705,	1696
46,	8079,	7722,	8185,	8259,	8877,	8448,	8458,	8286,	8180,	8241,	8620,	8682,	8266,	8936,	14.61,	14.44,	13.48,	1.72,	0.43,	2.01,	2.27,	12.39,	12.31,	12.31,	14.81,	13.81,	14.65,	13.60,	1704,	1696
47,	8089,	7719,	8185,	8249,	8887,	8467,	8463,	8290,	8179,	8249,	8615,	8692,	8267,	8936,	14.61,	14.44,	13.48,	1.72,	0.43,	2.01,	2.27,	12.39,	12.31,	12.31,	14.81,	13.81,	14.65,	13.60,	1705,	1697
48,	8080,	7714,	8184,	8241,	8892,	8471,	8458,	8287,	8178,	8246,	8617,	8692,	8275,	8937,	14.61,	14.44,	13.48,	1.72,	0.43,	2.01,	2.27,	12.39,	12.31,	12.31,	14.81,	13.81,	14.65,	13.60,	1705,	1694
49,	8074,	7713,	8189,	8250,	8885,	8449,	8446,	8269,	8176,	8246,	8620,	8694,	8270,	8930,	14.61,	14.44,	13.48,	1.72,	0.43,	2.01,	2.27,	12.39,	12.31,	12.31,	14.81,	13.81,	14.65,	13.60,	1706,	1696
50,	8077,	7714,	8197,	8253,	8875,	8443,	8437,	8253,	8162,	8245,	8611,	8696,	8259,	8918,	14.61,	14.44,	13.48,	1.72,	0.43,	2.01,	2.27,	12.39,	12.31,	12.31,	14.81,	13.81,	14.65,	13.60,	1706,	1694
51,	8077,	7716,	8203,	8248,	8869,	8448,	8432,	8254,	8165,	8246,	8609,	8696,	8267,	8917,	14.61,	14.44,	13.48,	1.72,	0.43,	2.01,	2.27,	12.39,	12.31,	12.31,	14.81,	13.81,	14.65,	13.60,	1706,	1694
52,	8070,	7718,	8202,	8251,	8859,	8425,	8424,	8257,	8156,	8219,	8590,	8691,	8260,	8913,	14.61,	14.44,	13.48,	1.72,	0.43,	2.01,	2.27,	12.39,	12.31,	12.31,	14.81,	13.81,	14.65,	13.60,	1707,	1694
53,	8073,	7716,	8196,	8259,	8846,	8416,	8426,	8250,	8126,	8188,	8562,	8677,	8231,	8903,	14.61,	14.44,	13.48,	1.72,	0.43,	2.01,	2.27,	12.39,	12.31,	12.31,	14.81,	13.81,	14.65,	13.60,	1707,	1694
54,	8091,	7712,	8207,	8259,	8861,	8446,	8443,	8250,	8140,	8222,	8596,	8690,	8252,	8918,	14.61,	14.44,	13.48,	1.72,	0.43,	2.01,	2.27,	12.39,	12.31,	12.31,	14.81,	13.81,	14.65,	13.60,	1709,	1694
55,	8104,	7723,	8233,	8267,	8892,	8453,	8453,	8268,	8172,	8270,	8657,	8727,	8302,	8943,	14.61,	14.44,	13.48,	1.72,	0.43,	2.01,	2.27,	12.39,	12.31,	12.31,	14.81,	13.81,	14.65,	13.60,	1708,	1693
56,	8103,	7737,	8245,	8279,	8880,	8433,	8449,	8279,	8167,	8261,	8642,	8734,	8292,	8941,	14.61,	14.44,	13.48,	1.72,	0.43,	2.01,	2.27,	12.39,	12.31,	12.31,	14.81,	13.81,	14.65,	13.60,	1710,	1693
57,	8102,	7730,	8239,	8269,	8844,	8436,	8448,	8269,	8159,	8230,	8590,	8715,	8257,	8932,	14.61,	14.44,	13.48,	1.72,	0.43,	2.01,	2.27,	12.39,	12.31,	12.31,	14.81,	13.81,	14.65,	13.60,	1709,	1693
58,	8106,	7717,	8238,	8254,	8847,	8446,	8450,	8266,	8171,	8230,	8603,	8727,	8266,	8950,	14.61,	14.44,	13.48,	1.72,	0.43,	2.01,	2.27,	12.39,	12.31,	12.31,	14.81,	13.81,	14.65,	13.60,	1709,	1693
59,	8113,	7716,	8253,	8253,	8851,	8439,	8451,	8283,	8179,	8250,	8665,	8762,	8310,	8972,	14.61,	14.44,	13.48,	1.72,	0.43,	2.01,	2.27,	12.39,	12.31,	12.31,	14.81,	13.81,	14.65,	13.60,	1708,	1691
60,	8103,	7717,	8264,	8253,	8830,	8438,	8463,	8288,	8178,	8258,	8683,	8772,	8324,	8958,	14.61,	14.44,	13.48,	1.72,	0.43,	2.01,	2.27,	12.39,	12.31,	12.31,	14.81,	13.81,	14.65,	13.60,	1706,	1692
61,	8065,	7717,	8263,	8255,	8827,	8437,	8465,	8286,	8180,	8261,	8658,	8774,	8307,	8941,	14.61,	14.44,	13.48,	1.72,	0.43,	2.01,	2.27,	12.39,	12.31,	12.31,	14.81,	13.81,	14.65,	13.60,	1707,	1689
62,	8026,	7719,	8266,	8256,	8830,	8423,	8443,	8294,	8195,	8281,	8664,	8790,	8313,	8951,	14.61,	14.44,	13.48,	1.72,	0.43,	2.01,	2.27,	12.39,	12.31,	12.31,	14.81,	13.81,	14.65,	13.60,	1705,	1690
63,	7995,	7719,	8270,	8246,	8827,	8426,	8435,	8290,	8197,	8285,	8686,	8796,	8324,	8955,	14.61,	14.44,	13.48,	1.72,	0.43,	2.01,	2.27,	12.39,	12.31,	12.31,	14.81,	13.81,	14.65,	13.60,	1705,	1689
64,	7972,	7717,	8266,	8247,	8814,	8441,	8448,	8281,	8183,	8264,	8678,	8783,	8322,	8941,	14.58,	14.44,	13.48,	1.72,	0.43,	2.01,	2.27,	12.39,	12.31,	12.31,	14.81,	13.81,	14.65,	13.60,	1703,	1688
65,	7970,	7724,	8270,	8266,	8802,	8431,	8447,	8286,	8186,	8271,	8669,	8787,	8326,	8951,	14.58,	14.44,	13.48,	1.72,	0.43,	2.01,	2.27,	12.39,	12.31,	12.31,	14.81,	13.81,	14.65,	13.60,	1703,	1686
66,	7980,	7738,	8290,	8277,	8828,	8422,	8441,	8298,	8198,	8289,	8675,	8814,	8325,	8976,	14.58,	14.44,	13.47,	1.72,	0.43,	2.01,	2.27,	12.39,	12.31,	12.31,	14.81,	13.81,	14.65,	13.60,	1702,	1685
67,	7977,	7734,	8293,	8272,	8852,	8424,	8444,	8294,	8186,	8272,	8675,	8811,	8304,	8962,	14.58,	14.44,	13.47,	1.72,	0.43,	2.01,	2.27,	12.39,	12.31,	12.31,	14.81,	13.81,	14.65,	13.60,	1702,	1685
68,	7962,	7719,	8285,	8264,	8817,	8416,	8437,	8282,	8166,	8253,	8669,	8796,	8306,	8941,	14.58,	14.44,	13.47,	1.72,	0.43,	2.01,	2.27,	12.39,	12.31,	12.31,	14.81,	13.81,	14.65,	13.60,	1701,	1685
69,	7964,	7713,	8293,	8254,	8798,	8414,	8440,	8289,	8169,	8258,	8668,	8804,	8324,	8957,	14.58,	14.44,	13.47,	1.72,	0.43,	2.01,	2.27,	12.39,	12.31,	12.31,	14.81,	13.81,	14.65,	13.60,	1701,	1686
70,	7972,	7709,	8302,	8244,	8830,	8427,	8465,	8299,	8177,	8257,	8662,	8811,	8302,	8970,	14.58,	14.44,	13.47,	1.72,	0.43,	2.01,	2.27,	12.39,	12.31,	12.31,	14.81,	13.81,	14.65,	13.60,	1700,	1686
71,	7967,	7703,	8293,	8240,	8826,	8426,	8469,	8285,	8158,	8245,	8656,	8803,	8287,	8958,	14.58,	14.44,	13.47,	1.72,	0.43,	2.01,	2.27,	12.40,	12.31,	12.31,	14.81,	13.81,	14.65,	13.60,	1700,	1686
72,	7961,	7710,	8288,	8241,	8800,	8415,	8453,	8276,	8149,	8235,	8651,	8796,	8308,	8960,	14.58,	14.44,	13.47,	1.72,	0.43,	2.01,	2.27,	12.40,	12.28,	12.31,	14.81,	13.81,	14.65,	13.60,	1700,	1686
73,	7978,	7721,	8308,	8251,	8811,	8427,	8456,	8298,	8167,	8243,	8655,	8793,	8312,	8972,	14.58,	14.44,	13.47,	1.72,	0.43,	2.01,	2.27,	12.40,	12.28,	12.27,	14.81,	13.81,	14.65,	13.60,	1700,	1685
74,	7979,	7712,	8307,	8250,	8814,	8447,	8460,	8294,	8163,	8242,	8651,	8775,	8280,	8957,	14.58,	14.44,	13.47,	1.72,	0.43,	2.01,	2.27,	12.40,	12.28,	12.27,	14.81,	13.81,	14.65,	13.60,	1699,	1685
75,	7958,	7697,	8287,	8238,	8800,	8440,	8434,	8267,	8149,	8229,	8633,	8766,	8267,	8938,	14.58,	14.44,	13.47,	1.72,	0.43,	2.01,	2.27,	12.40,	12.28,	12.27,	14.81,	13.84,	14.65,	13.60,	1700,	1685
76,	7962,	7702,	8301,	8246,	8799,	8407,	8400,	8264,	8169,	8243,	8641,	8792,	8292,	8951,	14.58,	14.44,	13.47,	1.72,	0.43,	2.01,	2.27,	12.40,	12.28,	12.27,	14.81,	13.84,	14.64,	13.60,	1698,	1686
77,	7976,	7715,	8327,	8262,	8790,	8396,	8394,	8266,	8176,	8266,	8657,	8817,	8301,	8969,	14.58,	14.44,	13.47,	1.72,	0.43,	2.01,	2.27,	12.40,	12.28,	12.27,	14.81,	13.84,	14.64,	13.60,	1699,	1687
78,	7975,	7715,	8331,	8261,	8774,	8412,	8407,	8264,	8166,	8258,	8645,	8819,	8288,	8967,	14.58,	14.44,	13.47,	1.72,	0.43,	2.01,	2.27,	12.40,	12.28,	12.27,	14.86,	13.84,	14.64,	13.60,	1699,	1687
79,	7977,	7711,	8328,	8257,	8793,	8413,	8417,	8279,	8180,	8251,	8642,	8827,	8296,	8973,	14.58,	14.44,	13.47,	1.72,	0.43,	2.01,	2.27,	12.40,	12.28,	12.27,	14.86,	13.82,	14.64,	13.60,	1699,	1689
80,	7980,	7711,	8341,	8260,	8823,	8405,	8419,	8281,	8182,	8262,	8664,	8850,	8317,	8989,	14.58,	14.44,	13.47,	1.72,	0.43,	2.01,	2.27,	12.40,	12.28,	12.27,	14.86,	13.82,	14.68,	13.60,	1700,	1687
81,	7976,	7717,	8353,	8266,	8824,	8404,	8422,	8276,	8169,	8265,	8669,	8858,	8318,	8990,	14.58,	14.44,	13.47,	1.72,	0.43,	2.01,	2.27,	12.40,	12.28,	12.27,	14.86,	13.82,	14.68,	13.60,	1698,	1690
82,	7989,	7730,	8364,	8281,	8816,	8411,	8430,	8297,	8179,	8266,	8662,	8870,	8319,	8997,	14.58,	14.44,	13.47,	1.72,	0.43,	2.01,	2.27,	12.40,	12.28,	12.27,	14.84,	13.82,	14.68,	13.60,	1700,	1690
83,	8010,	7739,	8378,	8294,	8804,	8413,	8431,	8309,	8184,	8267,	8669,	8889,	8330,	9013,	14.58,	14.44,	13.47,	1.72,	0.43,	2.01,	2.27,	12.40,	12.28,	12.27,	14.84,	13.85,	14.68,	13.60,	1699,	1689
84,	8005,	7731,	8375,	8286,	8781,	8404,	8423,	8292,	8169,	8254,	8667,	8885,	8321,	9009,	14.58,	14.44,	13.47,	1.72,	0.43,	2.01,	2.27,	12.40,	12.28,	12.27,	14.84,	13.85,	14.68,	13.60,	1700,	1690
85,	7988,	7723,	8362,	8271,	8789,	8400,	8414,	8285,	8164,	8243,	8648,	8868,	8300,	8986,	14.58,	14.44,	13.47,	1.72,	0.43,	2.01,	2.27,	12.40,	12.28,	12.27,	14.84,	13.85,	14.68,	13.60,	1701,	1689
86,	7988,	7718,	8357,	8264,	8795,	8410,	8420,	8296,	8172,	8237,	8638,	8861,	8295,	8979,	14.58,	14.44,	13.47,	1.72,	0.43,	2.01,	2.27,	12.40,	12.28,	12.27,	14.81,	13.85,	14.68,	13.60,	1701,	1691
87,	7996,	7715,	8362,	8266,	8775,	8418,	8434,	8306,	8179,	8242,	8651,	8870,	8306,	8986,	14.58,	14.44,	13.47,	1.72,	0.43,	2.01,	2.27,	12.40,	12.28,	12.27,	14.81,	13.84,	14.68,	13.60,	1700,	1691
88,	7990,	7716,	8364,	8274,	8794,	8414,	8427,	8303,	8185,	8260,	8657,	8879,	8313,	8982,	14.58,	14.44,	13.47,	1.72,	0.43,	2.01,	2.27,	12.40,	12.28,	12.27,	14.81,	13.84,	14.68,	13.60,	1701,	1691
89,	7975,	7719,	8366,	8286,	8825,	8412,	8407,	8296,	8184,	8267,	8653,	8877,	8308,	8959,	14.58,	14.44,	13.47,	1.72,	0.43,	2.01,	2.27,	12.40,	12.28,	12.27,	14.81,	13.84,	14.68,	13.61,	1700,	1690
90,	7976,	7720,	8369,	8276,	8795,	8416,	8412,	8307,	8189,	8260,	8657,	8871,	8309,	8948,	14.58,	14.44,	13.47,	1.72,	0.43,	2.01,	2.27,	12.40,	12.28,	12.27,	14.81,	13.84,	14.68,	13.61,	1700,	1693
91,	7990,	7718,	8372,	8254,	8779,	8429,	8437,	8324,	8202,	8269,	8673,	8882,	8328,	8963,	14.58,	14.44,	13.47,	1.72,	0.43,	2.01,	2.27,	12.40,	12.28,	12.27,	14.81,	13.82,	14.68,	13.61,	1700,	1692
92,	7993,	7723,	8387,	8280,	8826,	8440,	8450,	8323,	8205,	8284,	8688,	8903,	8344,	8973,	14.58,	14.44,	13.47,	1.72,	0.43,	2.01,	2.27,	12.40,	12.28,	12.27,	14.81,	13.82,	14.67,	13.61,	1699,	1694
93,	7979,	7732,	8401,	8324,	8842,	8432,	8446,	8317,	8197,	8273,	8673,	8898,	8330,	8956,	14.58,	14.44,	13.47,	1.72,	0.43,	2.01,	2.27,	12.40,	12.28,	12.27,	14.86,	13.84,	14.67,	13.57,	1701,	1695
94,	7970,	7728,	8398,	8320,	8815,	8419,	8432,	8314,	8199,	8250,	8655,	8881,	8319,	8943,	14.58,	14.44,	13.47,	1.72,	0.43,	2.01,	2.27,	12.40,	12.28,	12.27,	14.86,	13.84,	14.67,	13.57,	1700,	1695
95,	7978,	7721,	8407,	8303,	8804,	8419,	8431,	8316,	8207,	8263,	8675,	8898,	8340,	8957,	14.58,	14.44,	13.47,	1.72,	0.43,	2.01,	2.27,	12.40,	12.28,	12.27,	14.86,	13.84,	14.67,	13.57,	1701,	1697
96,	7985,	7728,	8428,	8320,	8807,	8428,	8438,	8316,	8202,	8288,	8695,	8917,	8350,	8958,	14.58,	14.44,	13.47,	1.72,	0.43,	2.01,	2.27,	12.40,	12.28,	12.27,	14.86,	13.84,	14.67,	13.57,	1701,	1696
97,	7975,	7741,	8428,	8332,	8804,	8431,	8433,	8308,	8198,	8283,	8677,	8904,	8331,	8946,	14.58,	14.44,	13.47,	1.72,	0.43,	2.01,	2.27,	12.40,	12.28,	12.27,	14.86,	13.84,	14.67,	13.57,	1700,	1697
98,	7984,	7743,	8438,	8329,	8817,	8430,	8435,	8317,	8206,	8268,	8669,	8905,	8328,	8961,	14.58,	14.44,	13.47,	1.72,	0.43,	2.01,	2.27,	12.40,	12.28,	12.27,	14.86,	13.84,	14.67,	13.57,	1700,	1695
99,	8008,	7744,	8463,	8332,	8841,	8431,	8445,	8329,	8196,	8256,	8673,	8934,	8341,	8980,	14.58,	14.44,	13.47,	1.72,	0.43,	2.01,	2.27,	12.40,	12.28,	12.27,	14.86,	13.84,	14.67,	13.57,	1700,	1694
100,	8005,	7734,	8465,	8339,	8828,	8424,	8437,	8323,	8181,	8247,	8663,	8942,	8342,	8973,	14.58,	14.44,	13.47,	1.72,	0.43,	2.01,	2.27,	12.40,	12.28,	12.27,	14.86,	13.84,	14.67,	13.57,	1700,	1691
101,	7997,	7730,	8472,	8348,	8807,	8415,	8426,	8326,	8199,	8262,	8671,	8942,	8350,	8971,	14.58,	14.44,	13.47,	1.72,	0.43,	2.01,	2.27,	12.40,	12.28,	12.27,	14.86,	13.84,	14.67,	13.57,	1698,	1691
102,	8012,	7747,	8500,	8367,	8847,	8430,	8441,	8356,	8232,	8297,	8704,	8965,	8378,	8994,	14.58,	14.44,	13.47,	1.72,	0.43,	2.01,	2.27,	12.40,	12.28,	12.27,	14.86,	13.84,	14.67,	13.57,	1700,	1689
103,	8019,	7758,	8516,	8378,	8893,	8452,	8461,	8378,	8241,	8317,	8725,	8984,	8392,	9006,	14.58,	14.44,	13.47,	1.72,	0.43,	2.01,	2.27,	12.40,	12.28,	12.27,	14.86,	13.84,	14.67,	13.57,	1698,	1690
104,	8010,	7751,	8520,	8375,	8867,	8441,	8462,	8377,	8230,	8317,	8728,	8984,	8387,	8992,	14.58,	14.44,	13.47,	1.72,	0.43,	2.01,	2.27,	12.40,	12.28,	12.27,	14.86,	13.84,	14.67,	13.57,	1699,	1692
105,	8003,	7746,	8517,	8374,	8840,	8426,	8452,	8374,	8223,	8299,	8720,	8978,	8382,	8974,	14.58,	14.44,	13.47,	1.72,	0.43,	2.01,	2.27,	12.40,	12.28,	12.27,	14.86,	13.84,	14.67,	13.57,	1697,	1691
106,	7987,	7741,	8507,	8367,	8859,	8432,	8451,	8362,	8211,	8262,	8698,	8960,	8364,	8959,	14.58,	14.44,	13.47,	1.72,	0.43,	2.01,	2.27,	12.40,	12.28,	12.27,	14.86,	13.84,	14.65,	13.57,	1697,	1693
107,	7969,	7733,	8507,	8355,	8849,	8437,	8450,	8342,	8189,	8247,	8678,	8945,	8340,	8940,	14.58,	14.44,	13.47,	1.72,	0.43,	2.01,	2.27,	12.40,	12.28,	12.27,	14.86,	13.84,	14.65,	13.57,	1697,	1692
108,	7978,	7744,	8521,	8364,	8833,	8427,	8425,	8336,	8184,	8270,	8688,	8956,	8344,	8936,	14.58,	14.44,	13.47,	1.72,	0.43,	2.01,	2.27,	12.40,	12.28,	12.27,	14.84,	13.84,	14.65,	13.57,	1697,	1693
109,	7995,	7756,	8537,	8388,	8881,	8427,	8412,	8340,	8202,	8288,	8704,	8972,	8360,	8952,	14.58,	14.44,	13.47,	1.72,	0.43,	2.01,	2.27,	12.40,	12.28,	12.27,	14.84,	13.84,	14.65,	13.57,	1697,	1691
110,	7991,	7747,	8536,	8389,	8936,	8444,	8434,	8341,	8211,	8280,	8696,	8961,	8351,	8950,	14.58,	14.44,	13.47,	1.72,	0.43,	2.01,	2.27,	12.40,	12.28,	12.27,	14.84,	13.84,	14.65,	13.57,	1696,	1691
111,	7972,	7730,	8520,	8360,	8930,	8450,	8446,	8342,	8210,	8261,	8668,	8940,	8326,	8927,	14.58,	14.44,	13.47,	1.72,	0.43,	2.01,	2.27,	12.40,	12.28,	12.27,	14.84,	13.84,	14.65,	13.57,	1697,	1691
112,	7966,	7725,	8524,	8351,	8908,	8445,	8443,	8360,	8230,	8265,	8667,	8949,	8332,	8922,	14.58,	14.44,	13.47,	1.72,	0.43,	2.01,	2.27,	12.40,	12.28,	12.27,	14.84,	13.84,	14.68,	13.57,	1696,	1691
113,	7985,	7742,	8558,	8381,	8904,	8438,	8449,	8375,	8248,	8291,	8706,	8982,	8365,	8943,	14.58,	14.44,	13.47,	1.72,	0.43,	2.01,	2.27,	12.40,	12.28,	12.27,	14.84,	13.84,	14.68,	13.59,	1699,	1691
114,	8007,	7762,	8586,	8407,	8899,	8419,	8437,	8358,	8238,	8303,	8735,	9005,	8382,	8967,	14.58,	14.44,	13.47,	1.72,	0.43,	2.01,	2.27,	12.40,	12.28,	12.27,	14.83,	13.84,	14.68,	13.59,	1698,	1691
115,	8006,	7761,	8591,	8400,	8905,	8411,	8422,	8344,	8229,	8302,	8742,	9016,	8387,	8975,	14.58,	14.44,	13.47,	1.72,	0.43,	2.01,	2.27,	12.40,	12.28,	12.27,	14.83,	13.84,	14.68,	13.59,	1700,	1692
116,	8010,	7759,	8601,	8400,	8919,	8425,	8435,	8357,	8233,	8314,	8754,	9032,	8397,	8976,	14.58,	14.44,	13.47,	1.72,	0.43,	2.01,	2.27,	12.40,	12.28,	12.27,	14.83,	13.84,	14.68,	13.59,	1699,	1691
117,	8023,	7772,	8619,	8419,	8915,	8438,	8443,	8366,	8236,	8316,	8761,	9039,	8400,	8973,	14.58,	14.44,	13.47,	1.72,	0.43,	2.01,	2.27,	12.40,	12.28,	12.27,	14.83,	13.84,	14.68,	13.61,	1699,	1693
118,	8025,	7779,	8625,	8421,	8900,	8439,	8443,	8364,	8233,	8302,	8752,	9036,	8392,	8967,	14.58,	14.44,	13.47,	1.72,	0.43,	2.01,	2.27,	12.40,	12.28,	12.27,	14.86,	13.84,	14.68,	13.61,	1701,	1691
119,	8027,	7772,	8630,	8419,	8905,	8431,	8454,	8379,	8242,	8311,	8758,	9048,	8400,	8973,	14.58,	14.44,	13.47,	1.72,	0.43,	2.01,	2.27,	12.40,	12.28,	12.27,	14.86,	13.84,	14.68,	13.61,	1701,	1691
120,	8037,	7771,	8638,	8422,	8919,	8437,	8467,	8394,	8250,	8315,	8777,	9067,	8417,	8985,	14.58,	14.44,	13.47,	1.72,	0.43,	2.01,	2.27,	12.40,	12.28,	12.27,	14.86,	13.84,	14.68,	13.61,	1703,	1689
121,	8039,	7780,	8643,	8421,	8922,	8454,	8467,	8379,	8238,	8300,	8776,	9072,	8413,	8983,	14.58,	14.44,	13.47,	1.72,	0.43,	2.01,	2.27,	12.40,	12.28,	12.27,	14.86,	13.84,	14.68,	13.61,	1702,	1689
122,	8035,	7781,	8646,	8422,	8927,	8452,	8468,	8369,	8234,	8305,	8758,	9066,	8399,	8972,	14.58,	14.44,	13.47,	1.72,	0.43,	2.01,	2.27,	12.40,	12.28,	12.27,	14.81,	13.84,	14.68,	13.61,	1703,	1690
123,	8027,	7772,	8638,	8419,	8941,	8438,	8475,	8379,	8247,	8313,	8751,	9049,	8383,	8955,	14.58,	14.44,	13.47,	1.72,	0.43,	2.01,	2.27,	12.40,	12.28,	12.27,	14.81,	13.85,	14.68,	13.61,	1703,	1691
124,	8025,	7771,	8637,	8412,	8946,	8444,	8473,	8385,	8255,	8309,	8758,	9040,	8376,	8943,	14.58,	14.44,	13.47,	1.72,	0.43,	2.01,	2.27,	12.40,	12.28,	12.27,	14.81,	13.85,	14.65,	13.61,	1704,	1692
125,	8043,	7787,	8658,	8429,	8942,	8458,	8465,	8395,	8260,	8324,	8765,	9061,	8390,	8945,	14.58,	14.44,	13.47,	1.72,	0.43,	2.01,	2.27,	12.40,	12.28,	12.27,	14.81,	13.85,	14.65,	13.59,	1703,	1692
126,	8054,	7797,	8674,	8454,	8946,	8457,	8462,	8403,	8259,	8321,	8765,	9079,	8399,	8949,	14.58,	14.44,	13.47,	1.72,	0.43,	2.01,	2.27,	12.40,	12.28,	12.27,	14.84,	13.85,	14.65,	13.59,	1703,	1691
127,	8043,	7787,	8671,	8443,	8950,	8451,	8454,	8381,	8239,	8283,	8768,	9080,	8385,	8941,	14.58,	14.44,	13.47,	1.72,	0.43,	2.01,	2.27,	12.40,	12.28,	12.27,	14.84,	13.84,	14.65,	13.59,	1702,	1690
0,	8047,	7786,	8681,	8441,	8927,	8454,	8458,	8373,	8244,	8319,	8776,	9099,	8396,	8947,	14.61,	14.44,	13.47,	1.72,	0.43,	2.01,	2.27,	12.40,	12.28,	12.27,	14.84,	13.84,	14.65,	13.59,	1701,	1689
1,	8045,	7797,	8674,	8443,	8956,	8465,	8470,	8390,	8242,	8318,	8758,	9082,	8386,	8943,	14.61,	14.43,	13.47,	1.72,	0.43,	2.01,	2.27,	12.40,	12.28,	12.27,	14.84,	13.84,	14.65,	13.59,	1702,	1688
2,	8038,	7800,	8669,	8435,	8987,	8465,	8460,	8396,	8246,	8307,	8750,	9071,	8377,	8925,	14.61,	14.43,	12.92,	1.72,	0.43,	2.01,	2.27,	12.40,	12.28,	12.27,	14.84,	13.84,	14.65,	13.59,	1702,	1689
3,	8035,	7788,	8670,	8436,	8993,	8471,	8459,	8404,	8263,	8317,	8759,	9076,	8382,	8912,	14.61,	14.43,	12.92,	1.76,	0.43,	2.01,	2.27,	12.40,	12.28,	12.27,	14.84,	13.84,	14.65,	13.59,	1702,	1688
4,	8036,	7778,	8657,	8433,	8968,	8478,	8478,	8396,	8258,	8317,	8760,	9076,	8382,	8910,	14.61,	14.43,	12.92,	1.76,	0.44,	2.01,	2.27,	12.40,	12.28,	12.27,	14.84,	13.84,	14.65,	13.59,	1700,	1687
5,	8035,	7779,	8647,	8421,	8930,	8467,	8479,	8366,	8237,	8302,	8750,	9071,	8381,	8906,	14.61,	14.43,	12.92,	1.76,	0.44,	2.06,	2.27,	12.40,	12.28,	12.27,	14.84,	13.84,	14.65,	13.59,	1702,	1688
6,	8037,	7778,	8656,	8422,	8934,	8450,	8456,	8354,	8230,	8300,	8745,	9069,	8376,	8905,	14.61,	14.43,	12.92,	1.76,	0.44,	2.06,	2.25,	12.40,	12.28,	12.27,	14.84,	13.84,	14.65,	13.59,	1700,	1687
7,	8038,	7774,	8657,	8425,	8964,	8457,	8454,	8368,	8233,	8304,	8739,	9071,	8364,	8908,	14.61,	14.43,	12.92,	1.76,	0.44,	2.06,	2.25,	12.41,	12.28,	12.27,	14.84,	13.84,	14.65,	13.59,	1699,	1688
8,	8038,	7773,	8651,	8418,	8968,	8470,	8481,	8385,	8243,	8309,	8735,	9073,	8366,	8897,	14.61,	14.43,	12.92,	1.76,	0.44,	2.06,	2.25,	12.41,	12.28,	12.27,	14.84,	13.84,	14.65,	13.59,	1700,	1686
9,	8040,	7775,	8654,	8422,	8954,	8467,	8485,	8382,	8249,	8309,	8739,	9073,	8374,	8879,	14.61,	14.43,	12.92,	1.76,	0.44,	2.06,	2.25,	12.41,	12.28,	12.28,	14.84,	13.84,	14.65,	13.59,	1699,	1688
10,	8039,	7778,	8657,	8425,	8956,	8461,	8471,	8365,	8239,	8299,	8740,	9071,	8367,	8877,	14.61,	14.43,	12.92,	1.76,	0.44,	2.06,	2.25,	12.41,	12.28,	12.28,	14.86,	13.84,	14.65,	13.59,	1700,	1688
11,	8041,	7780,	8659,	8424,	8972,	8472,	8485,	8363,	8242,	8302,	8739,	9071,	8369,	8885,	14.61,	14.43,	12.92,	1.76,	0.44,	2.06,	2.25,	12.41,	12.28,	12.28,	14.86,	13.82,	14.65,	13.59,	1699,	1688
12,	8053,	7782,	8665,	8431,	8973,	8480,	8495,	8378,	8264,	8318,	8751,	9079,	8394,	8883,	14.61,	14.43,	12.92,	1.76,	0.44,	2.06,	2.25,	12.41,	12.28,	12.28,	14.86,	13.82,	14.68,	13.59,	1700,	1687
13,	8067,	7790,	8675,	8442,	8966,	8466,	8477,	8387,	8275,	8330,	8769,	9092,	8411,	8889,	14.61,	14.43,	12.92,	1.76,	0.44,	2.06,	2.25,	12.41,	12.28,	12.28,	14.86,	13.82,	14.68,	13.59,	1699,	1687
14,	8071,	7797,	8678,	8444,	8956,	8453,	8464,	8389,	8271,	8339,	8785,	9103,	8413,	8905,	14.61,	14.43,	12.92,	1.76,	0.44,	2.06,	2.25,	12.41,	12.28,	12.28,	14.81,	13.82,	14.68,	13.59,	1700,	1686
15,	8069,	7793,	8666,	8436,	8950,	8453,	8467,	8390,	8265,	8341,	8789,	9109,	8412,	8903,	14.61,	14.43,	12.92,	1.76,	0.44,	2.06,	2.25,	12.41,	12.28,	12.28,	14.81,	13.85,	14.68,	13.59,	1699,	1686
16,	8067,	7784,	8652,	8425,	8944,	8458,	8474,	8397,	8263,	8331,	8772,	9099,	8403,	8886,	14.61,	14.43,	12.92,	1.76,	0.44,	2.06,	2.25,	12.41,	12.28,	12.28,	14.81,	13.85,	14.68,	13.59,	1700,	1688
17,	8067,	7778,	8643,	8419,	8944,	8458,	8479,	8407,	8273,	8332,	8768,	9090,	8401,	8876,	14.61,	14.43,	12.92,	1.76,	0.44,	2.06,	2.25,	12.41,	12.28,	12.28,	14.81,	13.85,	14.68,	13.59,	1699,	1691
18,	8074,	7786,	8645,	8429,	8955,	8449,	8475,	8410,	8284,	8347,	8798,	9110,	8426,	8888,	14.61,	14.43,	12.92,	1.76,	0.44,	2.06,	2.25,	12.41,	12.28,	12.28,	14.81,	13.85,	14.68,	13.59,	1700,	1695
19,	8078,	7807,	8659,	8450,	8970,	8452,	8474,	8410,	8290,	8360,	8824,	9140,	8455,	8910,	14.61,	14.43,	12.92,	1.76,	0.44,	2.06,	2.25,	12.41,	12.28,	12.28,	14.81,	13.85,	14.68,	13.59,	1701,	1693
20,	8075,	7809,	8660,	8455,	8973,	8461,	8488,	8417,	8299,	8371,	8818,	9142,	8458,	8906,	14.61,	14.43,	12.92,	1.76,	0.44,	2.06,	2.25,	12.41,	12.28,	12.28,	14.81,	13.85,	14.68,	13.59,	1699,	1692
21,	8066,	7797,	8639,	8442,	8961,	8465,	8499,	8425,	8298,	8366,	8799,	9118,	8446,	8869,	14.61,	14.43,	12.92,	1.76,	0.44,	2.06,	2.25,	12.41,	12.28,	12.28,	14.81,	13.85,	14.68,	13.59,	1700,	1689
22,	8052,	7796,	8627,	8440,	8973,	8473,	8498,	8430,	8292,	8356,	8799,	9105,	8437,	8843,	14.61,	14.43,	12.92,	1.76,	0.44,	2.06,	2.25,	12.41,	12.28,	12.28,	14.81,	13.85,	14.68,	13.59,	1700,	1688
23,	8052,	7802,	8636,	8445,	8978,	8474,	8493,	8425,	8292,	8355,	8803,	9108,	8420,	8848,	14.61,	14.43,	12.92,	1.76,	0.44,	2.06,	2.25,	12.41,	12.28,	12.28,	14.81,	13.85,	14.68,	13.59,	1700,	1687
24,	8062,	7805,	8646,	8451,	8957,	8459,	8491,	8415,	8292,	8351,	8788,	9112,	8407,	8851,	14.61,	14.43,	12.92,	1.76,	0.44,	2.06,	2.25,	12.41,	12.28,	12.28,	14.81,	13.85,	14.68,	13.59,	1700,	1686
25,	8074,	7814,	8653,	8468,	8957,	8455,	8496,	8418,	8293,	8342,	8784,	9118,	8416,	8856,	14.61,	14.43,	12.92,	1.76,	0.44,	2.06,	2.25,	12.41,	12.28,	12.28,	14.81,	13.85,	14.68,	13.59,	1701,	1686
26,	8082,	7816,	8656,	8476,	8960,	8466,	8505,	8418,	8291,	8338,	8794,	9124,	8417,	8858,	14.61,	14.43,	12.92,	1.76,	0.44,	2.06,	2.25,	12.41,	12.28,	12.28,	14.81,	13.85,	14.68,	13.59,	1700,	1687
27,	8078,	7799,	8646,	8461,	8943,	8466,	8504,	8406,	8282,	8328,	8788,	9120,	8398,	8849,	14.61,	14.43,	12.92,	1.76,	0.44,	2.06,	2.25,	12.41,	12.28,	12.28,	14.81,	13.85,	14.68,	13.59,	1700,	1687
28,	8066,	7786,	8639,	8449,	8924,	8455,	8490,	8401,	8267,	8311,	8778,	9108,	8396,	8847,	14.61,	14.43,	12.92,	1.76,	0.44,	2.06,	2.25,	12.41,	12.28,	12.28,	14.81,	13.85,	14.68,	13.59,	1701,	1687
29,	8066,	7796,	8642,	8459,	8921,	8446,	8488,	8408,	8267,	8314,	8791,	9117,	8412,	8850,	14.61,	14.43,	12.92,	1.76,	0.44,	2.06,	2.25,	12.41,	12.28,	12.28,	14.81,	13.85,	14.68,	13.59,	1701,	1689
30,	8079,	7809,	8647,	8475,	8937,	8459,	8508,	8423,	8292,	8339,	8815,	9143,	8430,	8848,	14.61,	14.43,	12.92,	1.76,	0.44,	2.06,	2.25,	12.41,	12.28,	12.28,	14.81,	13.85,	14.68,	13.59,	1703,	1687
31,	8090,	7811,	8653,	8474,	8952,	8476,	8516,	8445,	8321,	8359,	8827,	9156,	8443,	8860,	14.61,	14.43,	12.92,	1.76,	0.44,	2.06,	2.25,	12.41,	12.28,	12.28,	14.81,	13.85,	14.68,	13.59,	1702,	1689
32,	8096,	7814,	8652,	8467,	8941,	8466,	8509,	8457,	8319,	8348,	8821,	9154,	8440,	8877,	14.61,	14.43,	12.92,	1.76,	0.44,	2.06,	2.25,	12.41,	12.28,	12.28,	14.81,	13.85,	14.68,	13.59,	1703,	1686
33,	8098,	7822,	8647,	8470,	8920,	8449,	8513,	8451,	8298,	8328,	8813,	9156,	8425,	8867,	14.61,	14.43,	12.92,	1.76,	0.44,	2.06,	2.25,	12.41,	12.28,	12.28,	14.81,	13.85,	14.68,	13.59,	1703,	1685
34,	8100,	7820,	8646,	8468,	8924,	8459,	8526,	8443,	8294,	8330,	8821,	9168,	8433,	8861,	14.61,	14.43,	12.92,	1.76,	0.44,	2.06,	2.25,	12.41,	12.28,	12.28,	14.81,	13.85,	14.68,	13.59,	1703,	1685
35,	8099,	7818,	8640,	8459,	8950,	8473,	8541,	8456,	8317,	8344,	8825,	9170,	8446,	8868,	14.61,	14.43,	12.92,	1.76,	0.44,	2.06,	2.25,	12.41,	12.28,	12.28,	14.81,	13.85,	14.68,	13.59,	1702,	1684
36,	8094,	7817,	8624,	8458,	8963,	8478,	8551,	8472,	8330,	8345,	8801,	9150,	8427,	8855,	14.61,	14.43,	12.92,	1.76,	0.44,	2.06,	2.25,	12.41,	12.28,	12.28,	14.81,	13.85,	14.68,	13.59,	1702,	1683
37,	8098,	7815,	8616,	8468,	8944,	8493,	8551,	8454,	8314,	8333,	8789,	9139,	8406,	8836,	14.61,	14.43,	12.92,	1.76,	0.44,	2.06,	2.25,	12.41,	12.28,	12.28,	14.81,	13.85,	14.68,	13.59,	1702,	1682
38,	8104,	7819,	8630,	8478,	8922,	8497,	8546,	8430,	8307,	8325,	8810,	9162,	8413,	8842,	14.61,	14.43,	12.92,	1.76,	0.44,	2.06,	2.25,	12.41,	12.28,	12.28,	14.81,	13.85,	14.68,	13.59,	1702,	1683
39,	8101,	7825,	8650,	8478,	8932,	8483,	8537,	8439,	8318,	8329,	8836,	9188,	8426,	8849,	14.61,	14.43,	12.92,	1.76,	0.44,	2.06,	2.25,	12.41,	12.28,	12.28,	14.81,	13.85,	14.68,	13.59,	1702,	1683
40,	8101,	7824,	8650,	8476,	8934,	8479,	8530,	8449,	8324,	8340,	8840,	9198,	8428,	8847,	14.61,	14.43,	12.92,	1.76,	0.44,	2.06,	2.25,	12.41,	12.28,	12.28,	14.81,	13.85,	14.68,	13.59,	1701,	1686
41,	8106,	7824,	8646,	8481,	8905,	8478,	8531,	8441,	8323,	8345,	8836,	9204,	8433,	8853,	14.61,	14.43,	12.92,	1.76,	0.44,	2.06,	2.25,	12.41,	12.28,	12.28,	14.81,	13.85,	14.68,	13.59,	1703,	1686
42,	8108,	7826,	8649,	8482,	8904,	8471,	8524,	8441,	8318,	8342,	8840,	9203,	8440,	8854,	14.61,	14.43,	12.92,	1.76,	0.44,	2.06,	2.25,	12.41,	12.28,	12.28,	14.81,	13.85,	14.68,	13.59,	1701,	1689
43,	8116,	7817,	8649,	8477,	8932,	8475,	8520,	8448,	8312,	8344,	8843,	9196,	8437,	8848,	14.61,	14.43,	12.92,	1.76,	0.44,	2.06,	2.25,	12.41,	12.28,	12.28,	14.81,	13.85,	14.68,	13.59,	1702,	1691
44,	8131,	7819,	8645,	8480,	8929,	8483,	8536,	8448,	8326,	8352,	8851,	9206,	8440,	8859,	14.61,	14.43,	12.92,	1.76,	0.44,	2.06,	2.25,	12.41,	12.28,	12.28,	14.81,	13.85,	14.68,	13.59,	1701,	1692
45,	8135,	7832,	8643,	8480,	8903,	8483,	8546,	8446,	8345,	8365,	8862,	9219,	8456,	8881,	14.61,	14.43,	12.92,	1.76,	0.44,	2.06,	2.25,	12.41,	12.28,	12.28,	14.81,	13.85,	14.68,	13.59,	1701,	1692
46,	8131,	7827,	8642,	8473,	8912,	8482,	8535,	8443,	8335,	8367,	8861,	9213,	8457,	8885,	14.61,	14.43,	12.92,	1.76,	0.44,	2.06,	2.25,	12.41,	12.28,	12.28,	14.81,	13.85,	14.68,	13.59,	1701,	1690
47,	8134,	7815,	8641,	8478,	8936,	8475,	8529,	8447,	8326,	8347,	8850,	9207,	8445,	8881,	14.61,	14.43,	12.92,	1.76,	0.44,	2.06,	2.25,	12.41,	12.28,	12.28,	14.81,	13.85,	14.68,	13.59,	1701,	1690
48,	8136,	7820,	8640,	8484,	8934,	8473,	8538,	8453,	8329,	8326,	8845,	9209,	8444,	8876,	14.61,	14.43,	12.92,	1.76,	0.44,	2.06,	2.25,	12.41,	12.28,	12.28,	14.81,	13.85,	14.68,	13.59,	1700,	1689
49,	8133,	7826,	8639,	8476,	8923,	8481,	8546,	8447,	8324,	8330,	8845,	9204,	8448,	8869,	14.61,	14.43,	12.92,	1.76,	0.44,	2.06,	2.25,	12.41,	12.28,	12.28,	14.81,	13.85,	14.68,	13.59,	1700,	1691
50,	8137,	7826,	8633,	8477,	8920,	8485,	8544,	8449,	8330,	8347,	8840,	9195,	8446,	8870,	14.61,	14.43,	12.92,	1.76,	0.44,	2.06,	2.25,	12.41,	12.28,	12.28,	14.81,	13.85,	14.68,	13.59,	1700,	1694
51,	8133,	7824,	8625,	8485,	8913,	8488,	8539,	8460,	8340,	8339,	8833,	9183,	8433,	8861,	14.61,	14.43,	12.92,	1.76,	0.44,	2.06,	2.25,	12.41,	12.28,	12.28,	14.81,	13.85,	14.68,	13.59,	1699,	1696
52,	8108,	7809,	8611,	8468,	8899,	8492,	8539,	8448,	8320,	8309,	8823,	9166,	8412,	8835,	14.61,	14.43,	12.92,	1.76,	0.44,	2.06,	2.25,	12.41,	12.28,	12.28,	14.81,	13.85,	14.68,	13.59,	1699,	1696
53,	8090,	7792,	8593,	8450,	8897,	8484,	8538,	8429,	8302,	8301,	8810,	9156,	8398,	8825,	14.61,	14.43,	12.92,	1.76,	0.44,	2.06,	2.25,	12.41,	12.28,	12.28,	14.81,	13.85,	14.68,	13.59,	1699,	1696
54,	8107,	7800,	8598,	8465,	8906,	8478,	8530,	8428,	8320,	8314,	8820,	9172,	8417,	8846,	14.61,	14.43,	12.92,	1.76,	0.44,	2.06,	2.25,	12.41,	12.28,	12.28,	14.81,	13.85,	14.68,	13.59,	1699,	1696
55,	8132,	7819,	8620,	8485,	8915,	8487,	8521,	8432,	8341,	8330,	8857,	9202,	8445,	8868,	14.61,	14.43,	12.92,	1.76,	0.44,	2.06,	2.25,	12.41,	12.28,	12.28,	14.81,	13.85,	14.68,	13.59,	1699,	1697
56,	8134,	7822,	8622,	8482,	8916,	8486,	8508,	8422,	8338,	8346,	8866,	9209,	8448,	8864,	14.61,	14.43,	12.92,	1.76,	0.44,	2.06,	2.25,	12.41,	12.28,	12.28,	14.81,	13.85,	14.68,	13.59,	1699,	1699
57,	8131,	7814,	8614,	8474,	8910,	8477,	8501,	8420,	8332,	8347,	8852,	9201,	8441,	8861,	14.61,	14.43,	12.92,	1.76,	0.44,	2.06,	2.25,	12.41,	12.28,	12.28,	14.81,	13.85,	14.68,	13.59,	1699,	1703
58,	8139,	7823,	8618,	8477,	8902,	8480,	8504,	8424,	8333,	8339,	8859,	9210,	8448,	8877,	14.61,	14.43,	12.92,	1.76,	0.44,	2.06,	2.25,	12.41,	12.28,	12.28,	14.81,	13.85,	14.68,	13.59,	1699,	1704
59,	8138,	7823,	8619,	8478,	8902,	8486,	8507,	8416,	8330,	8344,	8861,	9219,	8449,	8877,	14.61,	14.43,	12.92,	1.76,	0.44,	2.06,	2.25,	12.41,	12.28,	12.28,	14.81,	13.85,	14.68,	13.59,	1700,	1707
60,	8132,	7819,	8613,	8485,	8909,	8489,	8512,	8413,	8328,	8347,	8852,	9205,	8435,	8863,	14.61,	14.43,	12.92,	1.76,	0.44,	2.06,	2.25,	12.41,	12.28,	12.28,	14.81,	13.85,	14.68,	13.59,	1701,	1706
61,	8141,	7832,	8614,	8501,	8913,	8494,	8517,	8428,	8340,	8334,	8864,	9204,	8441,	8870,	14.61,	14.43,	12.92,	1.76,	0.44,	2.06,	2.25,	12.41,	12.28,	12.28,	14.81,	13.85,	14.68,	13.59,	1700,	1708
62,	8146,	7831,	8610,	8503,	8928,	8499,	8525,	8444,	8352,	8333,	8875,	9212,	8452,	8881,	14.61,	14.43,	12.92,	1.76,	0.44,	2.06,	2.25,	12.41,	12.28,	12.28,	14.81,	13.85,	14.68,	13.59,	1702,	1709
63,	8129,	7811,	8595,	8485,	8936,	8495,	8534,	8451,	8348,	8344,	8858,	9192,	8435,	8867,	14.61,	14.43,	12.92,	1.76,	0.44,	2.06,	2.25,	12.41,	12.28,	12.28,	14.81,	13.85,	14.68,	13.59,	1701,	1709
64,	8129,	7808,	8588,	8481,	8911,	8486,	8531,	8447,	8346,	8350,	8852,	9176,	8424,	8858,	14.62,	14.43,	12.92,	1.76,	0.44,	2.06,	2.25,	12.41,	12.28,	12.28,	14.81,	13.85,	14.68,	13.59,	1702,	1710
65,	8157,	7820,	8595,	8499,	8884,	8490,	8528,	8443,	8352,	8354,	8865,	9191,	8442,	8873,	14.62,	14.40,	12.92,	1.76,	0.44,	2.06,	2.25,	12.41,	12.28,	12.28,	14.81,	13.85,	14.68,	13.59,	1703,	1709
66,	8162,	7818,	8593,	8499,	8884,	8505,	8548,	8448,	8347,	8348,	8868,	9196,	8449,	8879,	14.62,	14.40,	12.86,	1.76,	0.44,	2.06,	2.25,	12.41,	12.28,	12.28,	14.81,	13.85,	14.68,	13.59,	1704,	1710
67,	8147,	7819,	8585,	8493,	8890,	8505,	8546,	8433,	8325,	8325,	8858,	9184,	8435,	8870,	14.62,	14.40,	12.86,	1.75,	0.44,	2.06,	2.25,	12.41,	12.28,	12.28,	14.81,	13.85,	14.68,	13.59,	1705,	1708
68,	8156,	7827,	8585,	8505,	8901,	8498,	8520,	8410,	8304,	8307,	8847,	9181,	8429,	8868,	14.62,	14.40,	12.86,	1.75,	0.41,	2.06,	2.25,	12.41,	12.28,	12.28,	14.81,	13.85,	14.68,	13.59,	1705,	1708
69,	8158,	7824,	8575,	8506,	8903,	8509,	8527,	8424,	8311,	8305,	8838,	9174,	8419,	8867,	14.62,	14.40,	12.86,	1.75,	0.41,	2.06,	2.25,	12.41,	12.28,	12.28,	14.81,	13.85,	14.68,	13.59,	1707,	1707
70,	8136,	7809,	8558,	8479,	8884,	8520,	8556,	8450,	8337,	8316,	8839,	9170,	8414,	8859,	14.62,	14.40,	12.86,	1.75,	0.41,	2.06,	2.25,	12.41,	12.28,	12.28,	14.81,	13.85,	14.68,	13.59,	1707,	1709
71,	8137,	7802,	8557,	8475,	8892,	8526,	8566,	8455,	8360,	8341,	8867,	9190,	8438,	8871,	14.62,	14.40,	12.86,	1.75,	0.41,	2.06,	2.25,	12.41,	12.28,	12.28,	14.81,	13.85,	14.68,	13.59,	1709,	1708
72,	8166,	7815,	8573,	8506,	8915,	8532,	8563,	8461,	8371,	8371,	8906,	9214,	8469,	8898,	14.62,	14.40,	12.86,	1.75,	0.41,	2.06,	2.25,	12.41,	12.31,	12.28,	14.81,	13.85,	14.68,	13.59,	1709,	1708
73,	8192,	7832,	8583,	8517,	8910,	8526,	8566,	8472,	8379,	8387,	8926,	9225,	8487,	8913,	14.62,	14.40,	12.86,	1.75,	0.41,	2.06,	2.25,	12.41,	12.31,	12.30,	14.81,	13.85,	14.68,	13.59,	1710,	1708
74,	8194,	7840,	8575,	8505,	8910,	8521,	8567,	8470,	8384,	8383,	8926,	9220,	8490,	8918,	14.62,	14.40,	12.86,	1.75,	0.41,	2.06,	2.25,	12.41,	12.31,	12.30,	14.86,	13.85,	14.68,	13.59,	1709,	1709
75,	8174,	7824,	8548,	8493,	8900,	8520,	8555,	8467,	8374,	8359,	8896,	9192,	8468,	8895,	14.62,	14.40,	12.86,	1.75,	0.41,	2.06,	2.25,	12.41,	12.31,	12.30,	14.86,	13.79,	14.68,	13.59,	1711,	1712
76,	8157,	7802,	8515,	8488,	8881,	8512,	8543,	8460,	8360,	8341,	8866,	9170,	8444,	8881,	14.62,	14.40,	12.86,	1.75,	0.41,	2.06,	2.25,	12.41,	12.31,	12.30,	14.86,	13.79,	14.68,	13.59,	1712,	1711
77,	8160,	7805,	8506,	8486,	8879,	8520,	8557,	8467,	8364,	8340,	8880,	9181,	8452,	8903,	14.62,	14.40,	12.86,	1.75,	0.41,	2.06,	2.25,	12.41,	12.31,	12.30,	14.86,	13.79,	14.68,	13.59,	1711,	1713
78,	8162,	7813,	8511,	8482,	8886,	8550,	8594,	8502,	8391,	8357,	8906,	9193,	8467,	8912,	14.62,	14.40,	12.86,	1.75,	0.41,	2.06,	2.25,	12.41,	12.31,	12.30,	14.84,	13.79,	14.68,	13.59,	1713,	1711
79,	8165,	7807,	8502,	8490,	8883,	8552,	8600,	8523,	8407,	8371,	8908,	9186,	8466,	8900,	14.62,	14.40,	12.86,	1.75,	0.41,	2.06,	2.25,	12.41,	12.31,	12.30,	14.84,	13.75,	14.68,	13.59,	1713,	1711
80,	8183,	7816,	8499,	8505,	8874,	8537,	8585,	8497,	8382,	8363,	8912,	9184,	8466,	8906,	14.62,	14.40,	12.86,	1.75,	0.41,	2.06,	2.25,	12.41,	12.31,	12.30,	14.84,	13.75,	14.65,	13.59,	1714,	1709
81,	8200,	7836,	8512,	8511,	8868,	8548,	8592,	8478,	8362,	8360,	8934,	9197,	8482,	8927,	14.62,	14.40,	12.86,	1.75,	0.41,	2.06,	2.25,	12.41,	12.31,	12.30,	14.84,	13.75,	14.65,	13.57,	1713,	1710
82,	8199,	7830,	8506,	8507,	8870,	8555,	8600,	8490,	8377,	8371,	8937,	9207,	8487,	8927,	14.62,	14.40,	12.86,	1.75,	0.41,	2.06,	2.25,	12.41,	12.31,	12.30,	14.81,	13.75,	14.65,	13.57,	1714,	1710
83,	8178,	7812,	8480,	8499,	8882,	8540,	8581,	8479,	8379,	8358,	8913,	9190,	8466,	8911,	14.62,	14.40,	12.86,	1.75,	0.41,	2.06,	2.25,	12.41,	12.31,	12.30,	14.81,	13.76,	14.65,	13.57,	1711,	1712
84,	8164,	7809,	8468,	8490,	8876,	8529,	8559,	8447,	8359,	8336,	8906,	9166,	8450,	8905,	14.62,	14.40,	12.86,	1.75,	0.41,	2.06,	2.25,	12.41,	12.31,	12.30,	14.81,	13.76,	14.68,	13.57,	1712,	1713
85,	8180,	7820,	8471,	8496,	8861,	8532,	8556,	8436,	8360,	8348,	8914,	9173,	8462,	8917,	14.62,	14.40,	12.86,	1.75,	0.41,	2.06,	2.25,	12.41,	12.31,	12.30,	14.81,	13.76,	14.68,	13.57,	1711,	1711
86,	8196,	7834,	8466,	8511,	8868,	8534,	8557,	8447,	8376,	8363,	8912,	9192,	8473,	8933,	14.62,	14.40,	12.86,	1.75,	0.41,	2.06,	2.25,	12.41,	12.31,	12.30,	14.83,	13.76,	14.68,	13.57,	1711,	1711
87,	8190,	7831,	8462,	8510,	8886,	8534,	8556,	8451,	8375,	8351,	8913,	9182,	8468,	8937,	14.62,	14.40,	12.86,	1.75,	0.41,	2.06,	2.25,	12.41,	12.31,	12.30,	14.83,	13.75,	14.68,	13.57,	1711,	1709
88,	8185,	7813,	8461,	8503,	8884,	8545,	8563,	8454,	8385,	8359,	8918,	9175,	8465,	8937,	14.62,	14.40,	12.86,	1.75,	0.41,	2.06,	2.25,	12.41,	12.31,	12.30,	14.83,	13.75,	14.68,	13.57,	1709,	1708
89,	8192,	7810,	8447,	8503,	8869,	8558,	8574,	8474,	8416,	8386,	8916,	9191,	8469,	8938,	14.62,	14.40,	12.86,	1.75,	0.41,	2.06,	2.25,	12.41,	12.31,	12.30,	14.83,	13.75,	14.68,	13.60,	1710,	1706
90,	8194,	7825,	8435,	8508,	8879,	8548,	8563,	8472,	8410,	8375,	8911,	9186,	8465,	8940,	14.62,	14.40,	12.86,	1.75,	0.41,	2.06,	2.25,	12.41,	12.31,	12.30,	14.86,	13.75,	14.68,	13.60,	1708,	1706
91,	8196,	7825,	8432,	8506,	8890,	8529,	8546,	8438,	8378,	8346,	8909,	9168,	8461,	8942,	14.62,	14.40,	12.86,	1.75,	0.41,	2.06,	2.25,	12.41,	12.31,	12.30,	14.86,	13.78,	14.68,	13.60,	1708,	1705
92,	8192,	7807,	8412,	8494,	8865,	8536,	8555,	8433,	8366,	8336,	8887,	9159,	8444,	8935,	14.62,	14.40,	12.86,	1.75,	0.41,	2.06,	2.25,	12.41,	12.31,	12.30,	14.86,	13.78,	14.68,	13.60,	1706,	1705
93,	8185,	7797,	8379,	8486,	8849,	8542,	8565,	8442,	8358,	8319,	8859,	9139,	8424,	8923,	14.62,	14.40,	12.86,	1.75,	0.41,	2.06,	2.25,	12.41,	12.31,	12.30,	14.86,	13.78,	14.68,	13.59,	1706,	1705
94,	8189,	7813,	8372,	8495,	8861,	8537,	8561,	8432,	8344,	8309,	8865,	9130,	8432,	8928,	14.62,	14.40,	12.86,	1.75,	0.41,	2.06,	2.25,	12.41,	12.31,	12.30,	14.83,	13.78,	14.68,	13.59,	1704,	1706
95,	8195,	7825,	8381,	8506,	8864,	8544,	8563,	8430,	8347,	8323,	8881,	9143,	8434,	8941,	14.62,	14.40,	12.86,	1.75,	0.41,	2.06,	2.25,	12.41,	12.31,	12.30,	14.83,	13.79,	14.68,	13.59,	1704,	1705
96,	8196,	7805,	8367,	8507,	8862,	8551,	8574,	8442,	8357,	8323,	8877,	9141,	8409,	8940,	14.62,	14.40,	12.86,	1.75,	0.41,	2.06,	2.25,	12.41,	12.31,	12.30,	14.83,	13.79,	14.67,	13.59,	1703,	1704
97,	8199,	7793,	8348,	8500,	8872,	8547,	8576,	8439,	8355,	8309,	8868,	9130,	8408,	8934,	14.62,	14.40,	12.86,	1.75,	0.41,	2.06,	2.25,	12.41,	12.31,	12.30,	14.83,	13.79,	14.67,	13.57,	1702,	1704
98,	8200,	7815,	8350,	8494,	8889,	8544,	8569,	8439,	8366,	8331,	8886,	9138,	8440,	8941,	14.62,	14.40,	12.86,	1.75,	0.41,	2.06,	2.25,	12.41,	12.31,	12.30,	14.83,	13.79,	14.67,	13.57,	1703,	1701
99,	8191,	7825,	8341,	8497,	8905,	8557,	8571,	8444,	8380,	8353,	8897,	9146,	8438,	8948,	14.62,	14.40,	12.86,	1.75,	0.41,	2.06,	2.25,	12.41,	12.31,	12.30,	14.83,	13.79,	14.67,	13.57,	1701,	1701
100,	8185,	7804,	8312,	8497,	8898,	8573,	8581,	8432,	8370,	8330,	8872,	9136,	8413,	8946,	14.62,	14.40,	12.86,	1.75,	0.41,	2.06,	2.25,	12.41,	12.31,	12.30,	14.83,	13.79,	14.65,	13.57,	1701,	1699
101,	8182,	7803,	8298,	8483,	8878,	8571,	8582,	8429,	8363,	8316,	8854,	9128,	8415,	8946,	14.62,	14.40,	12.86,	1.75,	0.41,	2.06,	2.25,	12.41,	12.31,	12.30,	14.83,	13.79,	14.65,	13.60,	1701,	1697
102,	8183,	7820,	8297,	8474,	8875,	8548,	8568,	8432,	8372,	8330,	8869,	9133,	8422,	8950,	14.62,	14.40,	12.86,	1.75,	0.41,	2.06,	2.25,	12.41,	12.31,	12.30,	14.81,	13.79,	14.65,	13.60,	1701,	1696
103,	8196,	7822,	8302,	8493,	8869,	8536,	8562,	8421,	8378,	8346,	8896,	9146,	8428,	8965,	14.62,	14.40,	12.86,	1.75,	0.41,	2.06,	2.25,	12.41,	12.31,	12.30,	14.81,	13.78,	14.65,	13.60,	1700,	1695
104,	8198,	7813,	8299,	8504,	8840,	8540,	8562,	8410,	8372,	8352,	8899,	9156,	8440,	8977,	14.62,	14.40,	12.86,	1.75,	0.41,	2.06,	2.25,	12.41,	12.31,	12.30,	14.81,	13.78,	14.67,	13.60,	1701,	1694
105,	8187,	7807,	8285,	8487,	8839,	8527,	8548,	8404,	8359,	8354,	8887,	9150,	8447,	8977,	14.62,	14.40,	12.86,	1.75,	0.41,	2.06,	2.25,	12.41,	12.31,	12.30,	14.81,	13.78,	14.67,	13.57,	1701,	1691
106,	8200,	7822,	8289,	8486,	8870,	8518,	8548,	8414,	8357,	8345,	8890,	9144,	8440,	8986,	14.62,	14.40,	12.86,	1.75,	0.41,	2.06,	2.25,	12.41,	12.31,	12.30,	14.81,	13.78,	14.67,	13.57,	1701,	1690
107,	8213,	7834,	8295,	8497,	8868,	8538,	8567,	8429,	8374,	8335,	8900,	9141,	8440,	8991,	14.62,	14.40,	12.86,	1.75,	0.41,	2.06,	2.25,	12.41,	12.31,	12.30,	14.81,	13.79,	14.67,	13.57,	1701,	1691
108,	8198,	7821,	8277,	8488,	8848,	8550,	8573,	8435,	8384,	8345,	8891,	9136,	8441,	8981,	14.62,	14.40,	12.86,	1.75,	0.41,	2.06,	2.25,	12.41,	12.31,	12.30,	14.81,	13.79,	14.65,	13.57,	1701,	1690
109,	8185,	7807,	8260,	8476,	8856,	8549,	8577,	8435,	8377,	8360,	8876,	9129,	8430,	8971,	14.62,	14.40,	12.86,	1.75,	0.41,	2.06,	2.25,	12.41,	12.31,	12.30,	14.81,	13.79,	14.65,	13.59,	1700,	1690
110,	8189,	7814,	8252,	8477,	8866,	8562,	8588,	8430,	8379,	8361,	8877,	9121,	8423,	8977,	14.62,	14.40,	12.86,	1.75,	0.41,	2.06,	2.25,	12.41,	12.31,	12.30,	14.81,	13.79,	14.65,	13.59,	1701,	1688
111,	8188,	7819,	8243,	8480,	8858,	8566,	8577,	8420,	8381,	8361,	8879,	9115,	8423,	8985,	14.62,	14.40,	12.86,	1.75,	0.41,	2.06,	2.25,	12.41,	12.31,	12.30,	14.81,	13.76,	14.65,	13.59,	1700,	1686
112,	8203,	7824,	8254,	8494,	8835,	8543,	8559,	8413,	8373,	8366,	8890,	9129,	8432,	8997,	14.62,	14.40,	12.86,	1.75,	0.41,	2.06,	2.25,	12.41,	12.31,	12.30,	14.81,	13.76,	14.68,	13.59,	1701,	1685
113,	8229,	7842,	8275,	8511,	8826,	8535,	8570,	8418,	8380,	8364,	8914,	9154,	8448,	9020,	14.62,	14.40,	12.86,	1.75,	0.41,	2.06,	2.25,	12.41,	12.31,	12.30,	14.81,	13.76,	14.68,	13.60,	1700,	1684
114,	8215,	7841,	8261,	8501,	8853,	8553,	8576,	8419,	8386,	8352,	8915,	9152,	8448,	9021,	14.62,	14.40,	12.86,	1.75,	0.41,	2.06,	2.25,	12.41,	12.31,	12.30,	14.81,	13.76,	14.68,	13.60,	1702,	1686
115,	8186,	7820,	8236,	8482,	8868,	8559,	8569,	8417,	8379,	8337,	8891,	9130,	8433,	9004,	14.62,	14.40,	12.86,	1.75,	0.41,	2.06,	2.25,	12.41,	12.31,	12.30,	14.81,	13.76,	14.68,	13.60,	1701,	1688
116,	8198,	7821,	8236,	8481,	8830,	8547,	8571,	8428,	8383,	8339,	8879,	9122,	8429,	9008,	14.62,	14.40,	12.86,	1.75,	0.41,	2.06,	2.25,	12.41,	12.31,	12.30,	14.81,	13.76,	14.68,	13.60,	1701,	1690
117,	8228,	7838,	8246,	8499,	8802,	8538,	8579,	8453,	8407,	8373,	8898,	9141,	8452,	9040,	14.62,	14.40,	12.86,	1.75,	0.41,	2.06,	2.25,	12.41,	12.31,	12.30,	14.81,	13.76,	14.68,	13.61,	1702,	1689
118,	8228,	7834,	8245,	8507,	8829,	8542,	8580,	8456,	8408,	8388,	8916,	9150,	8456,	9050,	14.62,	14.40,	12.86,	1.75,	0.41,	2.06,	2.25,	12.41,	12.31,	12.30,	14.81,	13.76,	14.68,	13.61,	1699,	1691
119,	8214,	7823,	8232,	8498,	8844,	8551,	8579,	8433,	8382,	8352,	8909,	9139,	8438,	9033,	14.62,	14.40,	12.86,	1.75,	0.41,	2.06,	2.25,	12.41,	12.31,	12.30,	14.81,	13.79,	14.68,	13.61,	1701,	1689
120,	8220,	7823,	8220,	8490,	8821,	8548,	8576,	8429,	8367,	8327,	8896,	9132,	8436,	9030,	14.62,	14.40,	12.86,	1.75,	0.41,	2.06,	2.25,	12.41,	12.31,	12.30,	14.81,	13.79,	14.64,	13.61,	1699,	1688
121,	8217,	7805,	8206,	8479,	8786,	8533,	8564,	8432,	8370,	8331,	8882,	9115,	8423,	9019,	14.62,	14.40,	12.86,	1.75,	0.41,	2.06,	2.25,	12.41,	12.31,	12.30,	14.81,	13.79,	14.64,	13.57,	1700,	1689
122,	8199,	7794,	8207,	8475,	8774,	8529,	8552,	8424,	8381,	8334,	8877,	9108,	8409,	9011,	14.62,	14.40,	12.86,	1.75,	0.41,	2.06,	2.25,	12.41,	12.31,	12.30,	14.81,	13.79,	14.64,	13.57,	1700,	1688
123,	8206,	7820,	8227,	8486,	8802,	8538,	8552,	8421,	8390,	8348,	8887,	9121,	8424,	9022,	14.62,	14.40,	12.86,	1.75,	0.41,	2.06,	2.25,	12.41,	12.31,	12.30,	14.81,	13.75,	14.64,	13.57,	1701,	1688
124,	8220,	7839,	8232,	8502,	8842,	8542,	8550,	8419,	8380,	8357,	8888,	9119,	8432,	9025,	14.62,	14.40,	12.86,	1.75,	0.41,	2.06,	2.25,	12.41,	12.31,	12.30,	14.81,	13.75,	14.67,	13.57,	1699,	1690
125,	8216,	7828,	8223,	8509,	8860,	8539,	8547,	8413,	8363,	8333,	8884,	9104,	8422,	9021,	14.62,	14.40,	12.86,	1.75,	0.41,	2.06,	2.25,	12.41,	12.31,	12.30,	14.81,	13.75,	14.67,	13.61,	1700,	1692
126,	8228,	7829,	8236,	8502,	8842,	8547,	8563,	8425,	8369,	8316,	8888,	9111,	8434,	9038,	14.62,	14.40,	12.86,	1.75,	0.41,	2.06,	2.25,	12.41,	12.31,	12.30,	14.86,	13.75,	14.67,	13.61,	1699,	1692
127,	8243,	7850,	8248,	8502,	8814,	8567,	8583,	8446,	8384,	8333,	8886,	9119,	8436,	9047,	14.62,	14.40,	12.86,	1.75,	0.41,	2.06,	2.25,	12.41,	12.31,	12.30,	14.86,	13.79,	14.67,	13.61,	1699,	1695
0,	8217,	7831,	8216,	8516,	8834,	8552,	8566,	8429,	8388,	8342,	8879,	9098,	8415,	9034,	14.61,	14.40,	12.86,	1.75,	0.41,	2.06,	2.25,	12.41,	12.31,	12.30,	14.86,	13.79,	14.67,	13.61,	1698,	1691
1,	8234,	7836,	8218,	8503,	8862,	8560,	8568,	8428,	8396,	8344,	8876,	9105,	8434,	9046,	14.61,	14.40,	12.86,	1.75,	0.41,	2.06,	2.25,	12.41,	12.31,	12.30,	14.86,	13.79,	14.67,	13.61,	1699,	1688
2,	8252,	7847,	8226,	8502,	8851,	8563,	8565,	8443,	8405,	8352,	8866,	9110,	8423,	9049,	14.61,	14.40,	13.05,	1.75,	0.41,	2.06,	2.25,	12.41,	12.31,	12.30,	14.86,	13.79,	14.67,	13.61,	1697,	1687
3,	8247,	7842,	8226,	8512,	8829,	8551,	8556,	8441,	8404,	8358,	8872,	9113,	8418,	9053,	14.61,	14.40,	13.05,	1.72,	0.41,	2.06,	2.25,	12.41,	12.31,	12.30,	14.86,	13.79,	14.67,	13.61,	1697,	1686
4,	8232,	7837,	8214,	8513,	8843,	8550,	8550,	8420,	8386,	8356,	8878,	9103,	8430,	9051,	14.61,	14.40,	13.05,	1.72,	0.44,	2.06,	2.25,	12.41,	12.31,	12.30,	14.86,	13.79,	14.67,	13.61,	1696,	1686
5,	8236,	7841,	8207,	8511,	8857,	8553,	8552,	8421,	8383,	8347,	8874,	9096,	8428,	9038,	14.61,	14.40,	13.05,	1.72,	0.44,	2.01,	2.25,	12.41,	12.31,	12.30,	14.86,	13.79,	14.67,	13.61,	1697,	1688
6,	8249,	7849,	8215,	8521,	8847,	8556,	8558,	8437,	8406,	8340,	8876,	9097,	8425,	9040,	14.61,	14.40,	13.05,	1.72,	0.44,	2.01,	2.28,	12.41,	12.31,	12.30,	14.86,	13.79,	14.67,	13.61,	1696,	1688
7,	8248,	7855,	8224,	8534,	8844,	8573,	8565,	8442,	8416,	8345,	8883,	9100,	8436,	9059,	14.61,	14.40,	13.05,	1.72,	0.44,	2.01,	2.28,	12.40,	12.31,	12.30,	14.86,	13.79,	14.67,	13.61,	1697,	1690
8,	8250,	7855,	8221,	8532,	8855,	8583,	8569,	8439,	8407,	8362,	8893,	9101,	8440,	9069,	14.61,	14.40,	13.05,	1.72,	0.44,	2.01,	2.28,	12.40,	12.28,	12.30,	14.86,	13.79,	14.67,	13.61,	1697,	1691
9,	8257,	7859,	8220,	8541,	8855,	8574,	8565,	8437,	8407,	8367,	8900,	9105,	8441,	9070,	14.61,	14.40,	13.05,	1.72,	0.44,	2.01,	2.28,	12.40,	12.28,	12.28,	14.86,	13.79,	14.67,	13.61,	1698,	1694
10,	8257,	7869,	8227,	8557,	8836,	8569,	8565,	8436,	8410,	8357,	8904,	9103,	8442,	9069,	14.61,	14.40,	13.05,	1.72,	0.44,	2.01,	2.28,	12.40,	12.28,	12.28,	14.83,	13.79,	14.67,	13.61,	1700,	1692
11,	8256,	7865,	8219,	8545,	8827,	8581,	8581,	8445,	8410,	8347,	8899,	9089,	8433,	9060,	14.61,	14.40,	13.05,	1.72,	0.44,	2.01,	2.28,	12.40,	12.28,	12.28,	14.83,	13.76,	14.67,	13.61,	1699,	1692
12,	8254,	7848,	8201,	8529,	8858,	8594,	8590,	8450,	8410,	8341,	8894,	9083,	8426,	9056,	14.61,	14.40,	13.05,	1.72,	0.44,	2.01,	2.28,	12.40,	12.28,	12.28,	14.83,	13.76,	14.67,	13.61,	1701,	1692
13,	8255,	7852,	8205,	8550,	8892,	8586,	8578,	8450,	8416,	8358,	8904,	9097,	8436,	9068,	14.61,	14.40,	13.05,	1.72,	0.44,	2.01,	2.28,	12.40,	12.28,	12.28,	14.83,	13.76,	14.67,	13.60,	1700,	1690
14,	8260,	7869,	8223,	8572,	8875,	8574,	8565,	8448,	8420,	8383,	8922,	9103,	8446,	9078,	14.61,	14.40,	13.05,	1.72,	0.44,	2.01,	2.28,	12.40,	12.28,	12.28,	14.83,	13.76,	14.67,	13.60,	1700,	1690
15,	8259,	7866,	8223,	8560,	8859,	8580,	8572,	8438,	8410,	8366,	8918,	9084,	8428,	9065,	14.61,	14.40,	13.05,	1.72,	0.44,	2.01,	2.28,	12.40,	12.28,	12.28,	14.83,	13.75,	14.67,	13.60,	1700,	1688
16,	8254,	7858,	8215,	8557,	8872,	8591,	8582,	8437,	8411,	8342,	8901,	9069,	8417,	9055,	14.61,	14.40,	13.05,	1.72,	0.44,	2.01,	2.28,	12.40,	12.28,	12.28,	14.83,	13.75,	14.67,	13.60,	1699,	1686
17,	8258,	7868,	8224,	8575,	8857,	8596,	8583,	8456,	8424,	8363,	8907,	9082,	8433,	9067,	14.61,	14.40,	13.05,	1.72,	0.44,	2.01,	2.28,	12.40,	12.28,	12.28,	14.83,	13.75,	14.67,	13.60,	1698,	1685
18,	8260,	7876,	8235,	8581,	8855,	8602,	8589,	8474,	8435,	8381,	8930,	9091,	8446,	9072,	14.61,	14.40,	13.05,	1.72,	0.44,	2.01,	2.28,	12.40,	12.28,	12.28,	14.83,	13.75,	14.67,	13.60,	1696,	1686
19,	8254,	7869,	8223,	8573,	8896,	8604,	8607,	8479,	8440,	8369,	8936,	9075,	8443,	9060,	14.61,	14.40,	13.05,	1.72,	0.44,	2.01,	2.28,	12.40,	12.28,	12.28,	14.83,	13.75,	14.67,	13.60,	1696,	1686
20,	8251,	7862,	8211,	8570,	8900,	8589,	8602,	8481,	8435,	8374,	8924,	9067,	8445,	9061,	14.61,	14.40,	13.05,	1.72,	0.44,	2.01,	2.28,	12.40,	12.28,	12.28,	14.83,	13.75,	14.67,	13.60,	1695,	1687
21,	8252,	7861,	8214,	8568,	8871,	8579,	8579,	8480,	8424,	8375,	8915,	9077,	8450,	9073,	14.61,	14.40,	13.05,	1.72,	0.44,	2.01,	2.28,	12.40,	12.28,	12.28,	14.83,	13.75,	14.67,	13.60,	1695,	1686
22,	8255,	7864,	8220,	8566,	8875,	8588,	8577,	8476,	8419,	8355,	8928,	9075,	8441,	9071,	14.61,	14.40,	13.05,	1.72,	0.44,	2.01,	2.28,	12.40,	12.28,	12.28,	14.83,	13.75,	14.67,	13.60,	1694,	1686
23,	8255,	7864,	8222,	8572,	8890,	8584,	8589,	8478,	8431,	8365,	8949,	9072,	8449,	9068,	14.61,	14.40,	13.05,	1.72,	0.44,	2.01,	2.28,	12.40,	12.28,	12.28,	14.83,	13.75,	14.67,	13.60,	1695,	1684
24,	8255,	7862,	8218,	8573,	8885,	8568,	8584,	8476,	8442,	8392,	8952,	9088,	8467,	9081,	14.61,	14.40,	13.05,	1.72,	0.44,	2.01,	2.28,	12.40,	12.28,	12.28,	14.83,	13.75,	14.67,	13.60,	1694,	1684
25,	8267,	7863,	8213,	8557,	8896,	8568,	8575,	8460,	8433,	8388,	8940,	9096,	8460,	9091,	14.61,	14.40,	13.05,	1.72,	0.44,	2.01,	2.28,	12.40,	12.28,	12.28,	14.83,	13.75,	14.67,	13.60,	1694,	1685
26,	8272,	7861,	8211,	8547,	8916,	8579,	8583,	8452,	8419,	8368,	8939,	9087,	8450,	9093,	14.61,	14.40,	13.05,	1.72,	0.44,	2.01,	2.28,	12.40,	12.28,	12.28,	14.83,	13.75,	14.67,	13.60,	1695,	1686
27,	8262,	7854,	8207,	8545,	8898,	8585,	8594,	8464,	8417,	8365,	8944,	9078,	8452,	9092,	14.61,	14.40,	13.05,	1.72,	0.44,	2.01,	2.28,	12.40,	12.28,	12.28,	14.83,	13.75,	14.67,	13.60,	1695,	1689
28,	8253,	7852,	8205,	8543,	8872,	8582,	8600,	8478,	8418,	8376,	8942,	9074,	8448,	9087,	14.61,	14.40,	13.05,	1.72,	0.44,	2.01,	2.28,	12.40,	12.28,	12.28,	14.83,	13.75,	14.67,	13.60,	1695,	1691
29,	8262,	7853,	8212,	8540,	8881,	8573,	8604,	8478,	8411,	8373,	8938,	9074,	8446,	9087,	14.61,	14.40,	13.05,	1.72,	0.44,	2.01,	2.28,	12.40,	12.28,	12.28,	14.83,	13.75,	14.67,	13.60,	1696,	1692
30,	8279,	7847,	8216,	8539,	8906,	8574,	8610,	8476,	8410,	8350,	8926,	9077,	8454,	9096,	14.61,	14.40,	13.05,	1.72,	0.44,	2.01,	2.28,	12.40,	12.28,	12.28,	14.83,	13.75,	14.67,	13.60,	1696,	1691
31,	8279,	7848,	8213,	8534,	8922,	8586,	8610,	8487,	8422,	8363,	8923,	9081,	8448,	9096,	14.61,	14.40,	13.05,	1.72,	0.44,	2.01,	2.28,	12.40,	12.28,	12.28,	14.83,	13.75,	14.67,	13.60,	1697,	1690
32,	8264,	7850,	8210,	8528,	8923,	8590,	8612,	8498,	8434,	8397,	8935,	9076,	8442,	9085,	14.61,	14.40,	13.05,	1.72,	0.44,	2.01,	2.28,	12.40,	12.28,	12.28,	14.83,	13.75,	14.67,	13.60,	1698,	1688
33,	8248,	7842,	8197,	8526,	8915,	8582,	8602,	8484,	8429,	8377,	8912,	9049,	8439,	9069,	14.61,	14.40,	13.05,	1.72,	0.44,	2.01,	2.28,	12.40,	12.28,	12.28,	14.83,	13.75,	14.67,	13.60,	1699,	1688
34,	8236,	7844,	8178,	8532,	8918,	8570,	8573,	8457,	8419,	8349,	8872,	9019,	8420,	9047,	14.61,	14.40,	13.05,	1.72,	0.44,	2.01,	2.28,	12.40,	12.28,	12.28,	14.83,	13.75,	14.67,	13.60,	1700,	1687
35,	8225,	7855,	8174,	8540,	8940,	8572,	8569,	8451,	8418,	8361,	8877,	9010,	8410,	9035,	14.61,	14.40,	13.05,	1.72,	0.44,	2.01,	2.28,	12.40,	12.28,	12.28,	14.83,	13.75,	14.67,	13.60,	1699,	1688
36,	8224,	7850,	8170,	8533,	8930,	8589,	8585,	8449,	8409,	8360,	8895,	9006,	8409,	9035,	14.61,	14.40,	13.05,	1.72,	0.44,	2.01,	2.28,	12.40,	12.28,	12.28,	14.83,	13.75,	14.67,	13.60,	1700,	1686
37,	8222,	7835,	8158,	8515,	8885,	8582,	8568,	8436,	8396,	8334,	8881,	9000,	8404,	9032,	14.61,	14.40,	13.05,	1.72,	0.44,	2.01,	2.28,	12.40,	12.28,	12.28,	14.83,	13.75,	14.67,	13.60,	1700,	1686
38,	8214,	7831,	8153,	8512,	8890,	8557,	8543,	8430,	8397,	8324,	8872,	8995,	8399,	9023,	14.61,	14.40,	13.05,	1.72,	0.44,	2.01,	2.28,	12.40,	12.28,	12.28,	14.83,	13.75,	14.67,	13.60,	1700,	1685
39,	8213,	7840,	8151,	8525,	8951,	8570,	8556,	8438,	8412,	8341,	8888,	8992,	8398,	9027,	14.61,	14.40,	13.05,	1.72,	0.44,	2.01,	2.28,	12.40,	12.28,	12.28,	14.83,	13.75,	14.67,	13.60,	1700,	1685
40,	8222,	7851,	8157,	8533,	8974,	8600,	8579,	8455,	8430,	8364,	8900,	9004,	8416,	9051,	14.61,	14.40,	13.05,	1.72,	0.44,	2.01,	2.28,	12.40,	12.28,	12.28,	14.83,	13.75,	14.67,	13.60,	1701,	1684
41,	8227,	7849,	8164,	8524,	8942,	8593,	8587,	8465,	8423,	8374,	8896,	9008,	8432,	9058,	14.61,	14.40,	13.05,	1.72,	0.44,	2.01,	2.28,	12.40,	12.28,	12.28,	14.83,	13.75,	14.67,	13.60,	1700,	1685
42,	8224,	7831,	8149,	8501,	8923,	8572,	8585,	8454,	8398,	8356,	8871,	8983,	8407,	9042,	14.61,	14.40,	13.05,	1.72,	0.44,	2.01,	2.28,	12.40,	12.28,	12.28,	14.83,	13.75,	14.67,	13.60,	1701,	1684
43,	8221,	7821,	8132,	8481,	8931,	8569,	8567,	8435,	8385,	8331,	8853,	8965,	8381,	9032,	14.61,	14.40,	13.05,	1.72,	0.44,	2.01,	2.28,	12.40,	12.28,	12.28,	14.83,	13.75,	14.67,	13.60,	1701,	1683
44,	8216,	7826,	8134,	8482,	8916,	8569,	8558,	8432,	8384,	8322,	8862,	8969,	8391,	9033,	14.61,	14.40,	13.05,	1.72,	0.44,	2.01,	2.28,	12.40,	12.28,	12.28,	14.83,	13.75,	14.67,	13.60,	1702,	1683
45,	8214,	7824,	8132,	8490,	8887,	8563,	8572,	8445,	8385,	8329,	8866,	8975,	8391,	9033,	14.61,	14.40,	13.05,	1.72,	0.44,	2.01,	2.28,	12.40,	12.28,	12.28,	14.83,	13.75,	14.67,	13.60,	1702,	1682
46,	8216,	7820,	8123,	8483,	8898,	8574,	8580,	8454,	8401,	8339,	8863,	8976,	8382,	9036,	14.61,	14.40,	13.05,	1.72,	0.44,	2.01,	2.28,	12.40,	12.28,	12.28,	14.83,	13.75,	14.67,	13.60,	1700,	1683
47,	8205,	7823,	8120,	8477,	8945,	8595,	8576,	8450,	8416,	8343,	8865,	8971,	8387,	9033,	14.61,	14.40,	13.05,	1.72,	0.44,	2.01,	2.28,	12.40,	12.28,	12.28,	14.83,	13.75,	14.67,	13.60,	1702,	1682
48,	8199,	7825,	8120,	8493,	8956,	8598,	8574,	8436,	8405,	8336,	8867,	8965,	8385,	9024,	14.61,	14.40,	13.05,	1.72,	0.44,	2.01,	2.28,	12.40,	12.28,	12.28,	14.83,	13.75,	14.67,	13.60,	1700,	1682
49,	8215,	7826,	8121,	8508,	8945,	8597,	8585,	8434,	8395,	8327,	8873,	8974,	8390,	9030,	14.61,	14.40,	13.05,	1.72,	0.44,	2.01,	2.28,	12.40,	12.28,	12.28,	14.83,	13.75,	14.67,	13.60,	1700,	1681
50,	8222,	7828,	8121,	8498,	8946,	8605,	8606,	8447,	8404,	8334,	8877,	8977,	8401,	9039,	14.61,	14.40,	13.05,	1.72,	0.44,	2.01,	2.28,	12.40,	12.28,	12.28,	14.83,	13.75,	14.67,	13.60,	1700,	1682
51,	8211,	7823,	8112,	8490,	8926,	8604,	8613,	8452,	8408,	8346,	8868,	8963,	8387,	9028,	14.61,	14.40,	13.05,	1.72,	0.44,	2.01,	2.28,	12.40,	12.28,	12.28,	14.83,	13.75,	14.67,	13.60,	1701,	1682
52,	8209,	7814,	8092,	8495,	8897,	8594,	8606,	8454,	8408,	8339,	8861,	8957,	8369,	9019,	14.61,	14.40,	13.05,	1.72,	0.44,	2.01,	2.28,	12.40,	12.28,	12.28,	14.83,	13.75,	14.67,	13.60,	1699,	1682
53,	8218,	7815,	8084,	8489,	8902,	8591,	8603,	8469,	8418,	8328,	8875,	8962,	8377,	9027,	14.61,	14.40,	13.05,	1.72,	0.44,	2.01,	2.28,	12.40,	12.28,	12.28,	14.83,	13.75,	14.67,	13.60,	1700,	1681
54,	8219,	7821,	8092,	8483,	8899,	8589,	8595,	8472,	8420,	8334,	8887,	8969,	8389,	9034,	14.61,	14.40,	13.05,	1.72,	0.44,	2.01,	2.28,	12.40,	12.28,	12.28,	14.83,	13.75,	14.67,	13.60,	1699,	1682
55,	8210,	7821,	8088,	8485,	8880,	8580,	8575,	8449,	8403,	8327,	8873,	8965,	8384,	9025,	14.61,	14.40,	13.05,	1.72,	0.44,	2.01,	2.28,	12.40,	12.28,	12.28,	14.83,	13.75,	14.67,	13.60,	1700,	1684
56,	8205,	7814,	8080,	8481,	8899,	8574,	8570,	8434,	8393,	8312,	8854,	8954,	8376,	9016,	14.61,	14.40,	13.05,	1.72,	0.44,	2.01,	2.28,	12.40,	12.28,	12.28,	14.83,	13.75,	14.67,	13.60,	1700,	1685
57,	8216,	7811,	8083,	8480,	8939,	8572,	8581,	8447,	8404,	8335,	8867,	8963,	8379,	9026,	14.61,	14.40,	13.05,	1.72,	0.44,	2.01,	2.28,	12.40,	12.28,	12.28,	14.83,	13.75,	14.67,	13.60,	1699,	1687
58,	8227,	7815,	8087,	8486,	8947,	8574,	8586,	8460,	8420,	8358,	8884,	8969,	8388,	9039,	14.61,	14.40,	13.05,	1.72,	0.44,	2.01,	2.28,	12.40,	12.28,	12.28,	14.83,	13.75,	14.67,	13.60,	1700,	1688
59,	8223,	7818,	8082,	8482,	8924,	8581,	8584,	8444,	8411,	8333,	8858,	8948,	8375,	9031,	14.61,	14.40,	13.05,	1.72,	0.44,	2.01,	2.28,	12.40,	12.28,	12.28,	14.83,	13.75,	14.67,	13.60,	1699,	1688
60,	8211,	7813,	8066,	8470,	8910,	8581,	8577,	8426,	8388,	8298,	8830,	8933,	8350,	9013,	14.61,	14.40,	13.05,	1.72,	0.44,	2.01,	2.28,	12.40,	12.28,	12.28,	14.83,	13.75,	14.67,	13.60,	1700,	1689
61,	8208,	7803,	8049,	8462,	8909,	8575,	8574,	8434,	8391,	8294,	8844,	8938,	8357,	9015,	14.61,	14.40,	13.05,	1.72,	0.44,	2.01,	2.28,	12.40,	12.28,	12.28,	14.83,	13.75,	14.67,	13.60,	1699,	1689
62,	8217,	7803,	8047,	8464,	8901,	8582,	8587,	8450,	8416,	8316,	8869,	8947,	8382,	9031,	14.61,	14.40,	13.05,	1.72,	0.44,	2.01,	2.28,	12.40,	12.28,	12.28,	14.83,	13.75,	14.67,	13.60,	1700,	1689
63,	8210,	7802,	8042,	8464,	8906,	8594,	8591,	8438,	8415,	8336,	8858,	8942,	8376,	9030,	14.61,	14.40,	13.05,	1.72,	0.44,	2.01,	2.28,	12.40,	12.28,	12.28,	14.83,	13.75,	14.67,	13.60,	1698,	1689
64,	8187,	7788,	8021,	8452,	8916,	8588,	8574,	8422,	8393,	8318,	8827,	8921,	8343,	9006,	14.61,	14.40,	13.05,	1.72,	0.44,	2.01,	2.28,	12.40,	12.28,	12.28,	14.83,	13.75,	14.67,	13.60,	1700,	1689
65,	8185,	7786,	8010,	8449,	8908,	8578,	8571,	8424,	8387,	8292,	8826,	8912,	8338,	8990,	14.61,	14.44,	13.05,	1.72,	0.44,	2.01,	2.28,	12.40,	12.28,	12.28,	14.83,	13.75,	14.67,	13.60,	1699,	1687
66,	8198,	7799,	8023,	8464,	8905,	8580,	8585,	8428,	8394,	8307,	8852,	8934,	8366,	9012,	14.61,	14.44,	13.29,	1.72,	0.44,	2.01,	2.28,	12.40,	12.28,	12.28,	14.83,	13.75,	14.67,	13.60,	1699,	1687
67,	8198,	7803,	8026,	8473,	8935,	8579,	8577,	8429,	8398,	8324,	8857,	8946,	8379,	9031,	14.61,	14.44,	13.29,	1.73,	0.44,	2.01,	2.28,	12.40,	12.28,	12.28,	14.83,	13.75,	14.67,	13.60,	1699,	1686
68,	8194,	7796,	8014,	8463,	8953,	8574,	8562,	8428,	8397,	8316,	8838,	8929,	8359,	9016,	14.61,	14.44,	13.29,	1.73,	0.44,	2.01,	2.28,	12.40,	12.28,	12.28,	14.83,	13.75,	14.67,	13.60,	1699,	1687
69,	8192,	7798,	8014,	8463,	8923,	8575,	8564,	8434,	8397,	8315,	8835,	8923,	8348,	9008,	14.61,	14.44,	13.29,	1.73,	0.44,	2.01,	2.28,	12.40,	12.28,	12.28,	14.83,	13.75,	14.67,	13.60,	1699,	1686
70,	8200,	7808,	8011,	8473,	8899,	8573,	8570,	8436,	8396,	8318,	8844,	8933,	8362,	9020,	14.61,	14.44,	13.29,	1.73,	0.44,	2.01,	2.28,	12.40,	12.28,	12.28,	14.83,	13.75,	14.67,	13.60,	1698,	1687
71,	8214,	7810,	8005,	8475,	8925,	8579,	8574,	8437,	8399,	8316,	8853,	8936,	8378,	9023,	14.61,	14.44,	13.29,	1.73,	0.44,	2.01,	2.28,	12.41,	12.28,	12.28,	14.83,	13.75,	14.67,	13.60,	1699,	1688
72,	8224,	7815,	8020,	8486,	8958,	8595,	8591,	8452,	8416,	8329,	8880,	8954,	8390,	9040,	14.61,	14.44,	13.29,	1.73,	0.44,	2.01,	2.28,	12.41,	12.31,	12.28,	14.83,	13.75,	14.67,	13.60,	1700,	1688
73,	8237,	7834,	8039,	8509,	8947,	8610,	8606,	8465,	8434,	8347,	8905,	8977,	8406,	9068,	14.61,	14.44,	13.29,	1.73,	0.44,	2.01,	2.28,	12.41,	12.31,	12.30,	14.83,	13.75,	14.67,	13.60,	1700,	1687
74,	8241,	7843,	8029,	8512,	8930,	8612,	8602,	8453,	8421,	8342,	8896,	8970,	8409,	9059,	14.61,	14.44,	13.29,	1.73,	0.44,	2.01,	2.28,	12.41,	12.31,	12.30,	14.84,	13.75,	14.67,	13.60,	1700,	1687
75,	8230,	7831,	8009,	8500,	8960,	8600,	8595,	8442,	8406,	8340,	8878,	8951,	8401,	9045,	14.61,	14.44,	13.29,	1.73,	0.44,	2.01,	2.28,	12.41,	12.31,	12.30,	14.84,	13.79,	14.67,	13.60,	1700,	1687
76,	8223,	7821,	8005,	8493,	8946,	8586,	8588,	8449,	8407,	8354,	8884,	8951,	8396,	9055,	14.61,	14.44,	13.29,	1.73,	0.44,	2.01,	2.28,	12.41,	12.31,	12.30,	14.84,	13.79,	14.64,	13.60,	1700,	1686
77,	8225,	7822,	8001,	8492,	8878,	8582,	8581,	8438,	8400,	8345,	8894,	8958,	8405,	9062,	14.61,	14.44,	13.29,	1.73,	0.44,	2.01,	2.28,	12.41,	12.31,	12.30,	14.84,	13.79,	14.64,	13.59,	1700,	1687
78,	8225,	7822,	7993,	8499,	8901,	8593,	8590,	8431,	8391,	8319,	8888,	8955,	8403,	9055,	14.61,	14.44,	13.29,	1.73,	0.44,	2.01,	2.28,	12.41,	12.31,	12.30,	14.84,	13.79,	14.64,	13.59,	1700,	1687
79,	8215,	7819,	7981,	8495,	8990,	8608,	8604,	8439,	8387,	8310,	8861,	8934,	8370,	9042,	14.61,	14.44,	13.29,	1.73,	0.44,	2.01,	2.28,	12.41,	12.31,	12.30,	14.84,	13.75,	14.64,	13.59,	1699,	1688
80,	8203,	7816,	7966,	8479,	8996,	8625,	8600,	8438,	8390,	8315,	8835,	8902,	8344,	9025,	14.61,	14.44,	13.29,	1.73,	0.44,	2.01,	2.28,	12.41,	12.31,	12.30,	14.84,	13.75,	14.64,	13.59,	1700,	1687
81,	8198,	7815,	7960,	8471,	8946,	8644,	8608,	8445,	8402,	8318,	8841,	8899,	8351,	9015,	14.61,	14.44,	13.29,	1.73,	0.44,	2.01,	2.28,	12.41,	12.31,	12.30,	14.84,	13.75,	14.64,	13.57,	1700,	1687
82,	8199,	7812,	7961,	8469,	8939,	8633,	8625,	8452,	8414,	8327,	8851,	8913,	8361,	9018,	14.61,	14.44,	13.29,	1.73,	0.44,	2.01,	2.28,	12.41,	12.31,	12.30,	14.83,	13.75,	14.64,	13.57,	1700,	1686
83,	8194,	7809,	7953,	8466,	8942,	8594,	8601,	8436,	8408,	8339,	8845,	8905,	8364,	9027,	14.61,	14.44,	13.29,	1.73,	0.44,	2.01,	2.28,	12.41,	12.31,	12.30,	14.83,	13.76,	14.64,	13.57,	1700,	1685
84,	8201,	7812,	7951,	8474,	8908,	8569,	8558,	8408,	8390,	8335,	8860,	8911,	8377,	9037,	14.61,	14.44,	13.29,	1.73,	0.44,	2.01,	2.28,	12.41,	12.31,	12.30,	14.83,	13.76,	14.67,	13.57,	1700,	1685
85,	8221,	7812,	7977,	8493,	8881,	8571,	8555,	8399,	8382,	8314,	8886,	8940,	8383,	9038,	14.61,	14.44,	13.29,	1.73,	0.44,	2.01,	2.28,	12.41,	12.31,	12.30,	14.83,	13.76,	14.67,	13.61,	1700,	1684
86,	8226,	7812,	7984,	8497,	8899,	8577,	8574,	8402,	8383,	8301,	8878,	8947,	8374,	9032,	14.61,	14.44,	13.29,	1.73,	0.44,	2.01,	2.28,	12.41,	12.31,	12.30,	14.84,	13.76,	14.67,	13.61,	1700,	1685
87,	8212,	7804,	7964,	8481,	8934,	8575,	8574,	8405,	8383,	8309,	8867,	8932,	8372,	9032,	14.61,	14.44,	13.29,	1.73,	0.44,	2.01,	2.28,	12.41,	12.31,	12.30,	14.84,	13.78,	14.67,	13.61,	1700,	1685
88,	8200,	7800,	7947,	8475,	8939,	8578,	8575,	8415,	8382,	8319,	8876,	8927,	8369,	9028,	14.61,	14.44,	13.29,	1.73,	0.44,	2.01,	2.28,	12.41,	12.31,	12.30,	14.84,	13.78,	14.68,	13.61,	1701,	1685
89,	8197,	7808,	7943,	8486,	8926,	8585,	8587,	8421,	8386,	8305,	8867,	8922,	8360,	9017,	14.61,	14.44,	13.29,	1.73,	0.44,	2.01,	2.28,	12.41,	12.31,	12.30,	14.84,	13.78,	14.68,	13.61,	1701,	1685
90,	8191,	7807,	7934,	8490,	8909,	8584,	8579,	8424,	8392,	8292,	8857,	8907,	8360,	9008,	14.61,	14.44,	13.29,	1.73,	0.44,	2.01,	2.28,	12.41,	12.31,	12.30,	14.86,	13.78,	14.68,	13.61,	1702,	1686
91,	8189,	7801,	7922,	8491,	8898,	8576,	8566,	8417,	8390,	8305,	8868,	8905,	8360,	9005,	14.61,	14.44,	13.29,	1.73,	0.44,	2.01,	2.28,	12.41,	12.31,	12.30,	14.86,	13.78,	14.68,	13.61,	1701,	1685
92,	8209,	7813,	7925,	8504,	8916,	8571,	8572,	8411,	8387,	8323,	8878,	8919,	8361,	9020,	14.61,	14.44,	13.29,	1.73,	0.44,	2.01,	2.28,	12.41,	12.31,	12.30,	14.86,	13.78,	14.64,	13.61,	1701,	1686
93,	8221,	7830,	7927,	8511,	8948,	8573,	8578,	8422,	8398,	8337,	8870,	8924,	8369,	9034,	14.61,	14.44,	13.29,	1.73,	0.44,	2.01,	2.28,	12.41,	12.31,	12.30,	14.86,	13.78,	14.64,	13.60,	1701,	1688
94,	8197,	7823,	7912,	8506,	8952,	8575,	8567,	8430,	8404,	8326,	8856,	8914,	8366,	9019,	14.61,	14.44,	13.29,	1.73,	0.44,	2.01,	2.28,	12.41,	12.31,	12.30,	14.86,	13.78,	14.64,	13.60,	1701,	1690
95,	8184,	7813,	7903,	8502,	8933,	8581,	8565,	8428,	8396,	8303,	8865,	8909,	8359,	9000,	14.61,	14.44,	13.29,	1.73,	0.44,	2.01,	2.28,	12.41,	12.31,	12.30,	14.86,	13.76,	14.64,	13.60,	1701,	1691
96,	8196,	7813,	7903,	8500,	8934,	8583,	8577,	8422,	8387,	8297,	8872,	8903,	8357,	8995,	14.61,	14.44,	13.29,	1.73,	0.44,	2.01,	2.28,	12.41,	12.31,	12.30,	14.86,	13.76,	14.65,	13.60,	1701,	1692
97,	8190,	7807,	7898,	8495,	8950,	8584,	8589,	8424,	8382,	8293,	8842,	8888,	8345,	8996,	14.61,	14.44,	13.29,	1.73,	0.44,	2.01,	2.28,	12.41,	12.31,	12.30,	14.86,	13.76,	14.65,	13.59,	1701,	1691
98,	8186,	7805,	7894,	8496,	8949,	8591,	8598,	8434,	8390,	8288,	8825,	8891,	8340,	9006,	14.61,	14.44,	13.29,	1.73,	0.44,	2.01,	2.28,	12.41,	12.31,	12.30,	14.84,	13.76,	14.65,	13.59,	1700,	1692
99,	8205,	7815,	7904,	8505,	8933,	8588,	8592,	8447,	8415,	8310,	8853,	8912,	8357,	9016,	14.61,	14.44,	13.29,	1.73,	0.44,	2.01,	2.28,	12.41,	12.31,	12.30,	14.84,	13.75,	14.65,	13.59,	1702,	1691
100,	8211,	7818,	7911,	8507,	8931,	8581,	8579,	8444,	8421,	8329,	8862,	8913,	8362,	9009,	14.61,	14.44,	13.29,	1.73,	0.44,	2.01,	2.28,	12.41,	12.31,	12.30,	14.84,	13.75,	14.68,	13.59,	1701,	1691
101,	8197,	7805,	7901,	8498,	8936,	8583,	8573,	8422,	8389,	8305,	8838,	8891,	8344,	8997,	14.61,	14.44,	13.29,	1.73,	0.44,	2.01,	2.28,	12.41,	12.31,	12.30,	14.84,	13.75,	14.68,	13.59,	1701,	1692
102,	8192,	7800,	7885,	8487,	8917,	8577,	8565,	8402,	8364,	8284,	8822,	8872,	8327,	8991,	14.61,	14.44,	13.29,	1.73,	0.44,	2.01,	2.28,	12.41,	12.31,	12.30,	14.83,	13.75,	14.68,	13.59,	1700,	1692
103,	8194,	7801,	7880,	8485,	8899,	8560,	8551,	8396,	8371,	8287,	8814,	8861,	8325,	8986,	14.61,	14.44,	13.29,	1.73,	0.44,	2.01,	2.28,	12.41,	12.31,	12.30,	14.83,	13.79,	14.68,	13.59,	1699,	1693
104,	8183,	7795,	7869,	8485,	8921,	8558,	8552,	8404,	8385,	8288,	8820,	8856,	8337,	8980,	14.61,	14.44,	13.29,	1.73,	0.44,	2.01,	2.28,	12.41,	12.31,	12.30,	14.83,	13.79,	14.64,	13.59,	1699,	1693
105,	8165,	7781,	7851,	8469,	8947,	8566,	8565,	8411,	8385,	8293,	8821,	8850,	8330,	8975,	14.61,	14.44,	13.29,	1.73,	0.44,	2.01,	2.28,	12.41,	12.31,	12.30,	14.83,	13.79,	14.64,	13.59,	1699,	1692
106,	8160,	7773,	7842,	8455,	8951,	8570,	8571,	8398,	8372,	8297,	8810,	8841,	8311,	8962,	14.61,	14.44,	13.29,	1.73,	0.44,	2.01,	2.28,	12.41,	12.31,	12.30,	14.86,	13.79,	14.64,	13.59,	1698,	1690
107,	8163,	7782,	7849,	8467,	8945,	8578,	8575,	8385,	8365,	8279,	8815,	8843,	8312,	8954,	14.61,	14.44,	13.29,	1.73,	0.44,	2.01,	2.28,	12.41,	12.31,	12.30,	14.86,	13.79,	14.64,	13.59,	1697,	1690
108,	8162,	7789,	7851,	8478,	8922,	8578,	8576,	8380,	8357,	8260,	8821,	8850,	8320,	8958,	14.61,	14.44,	13.29,	1.73,	0.44,	2.01,	2.28,	12.41,	12.31,	12.30,	14.86,	13.79,	14.64,	13.59,	1698,	1689
109,	8159,	7784,	7841,	8469,	8899,	8565,	8570,	8377,	8349,	8268,	8820,	8841,	8320,	8959,	14.61,	14.44,	13.29,	1.73,	0.44,	2.01,	2.28,	12.41,	12.31,	12.30,	14.86,	13.79,	14.64,	13.60,	1696,	1689
110,	8163,	7777,	7831,	8464,	8912,	8564,	8581,	8386,	8361,	8277,	8826,	8825,	8318,	8950,	14.61,	14.44,	13.29,	1.73,	0.44,	2.01,	2.28,	12.41,	12.31,	12.30,	14.83,	13.79,	14.64,	13.60,	1698,	1689
111,	8159,	7771,	7825,	8462,	8927,	8567,	8590,	8395,	8369,	8271,	8821,	8816,	8312,	8941,	14.61,	14.44,	13.29,	1.73,	0.44,	2.01,	2.28,	12.41,	12.31,	12.30,	14.83,	13.78,	14.64,	13.60,	1696,	1689
112,	8157,	7772,	7835,	8461,	8919,	8555,	8564,	8380,	8357,	8277,	8810,	8814,	8305,	8941,	14.61,	14.44,	13.29,	1.73,	0.44,	2.01,	2.28,	12.41,	12.31,	12.30,	14.83,	13.78,	14.64,	13.60,	1697,	1689
113,	8182,	7790,	7861,	8484,	8947,	8554,	8546,	8378,	8357,	8291,	8836,	8831,	8327,	8957,	14.61,	14.44,	13.29,	1.73,	0.44,	2.01,	2.28,	12.41,	12.31,	12.30,	14.83,	13.78,	14.64,	13.60,	1697,	1686
114,	8199,	7806,	7875,	8511,	8983,	8562,	8560,	8396,	8372,	8292,	8863,	8850,	8351,	8974,	14.61,	14.44,	13.29,	1.73,	0.44,	2.01,	2.28,	12.41,	12.31,	12.30,	14.81,	13.78,	14.64,	13.60,	1697,	1685
115,	8190,	7806,	7872,	8510,	8973,	8562,	8568,	8395,	8374,	8294,	8853,	8849,	8348,	8977,	14.61,	14.44,	13.29,	1.73,	0.44,	2.01,	2.28,	12.41,	12.31,	12.30,	14.81,	13.75,	14.64,	13.60,	1698,	1684
116,	8198,	7811,	7878,	8510,	8962,	8578,	8572,	8391,	8382,	8306,	8858,	8853,	8354,	8984,	14.61,	14.44,	13.29,	1.73,	0.44,	2.01,	2.28,	12.41,	12.31,	12.30,	14.81,	13.75,	14.64,	13.60,	1698,	1683
117,	8222,	7818,	7895,	8523,	8958,	8591,	8588,	8404,	8396,	8317,	8882,	8860,	8369,	8999,	14.61,	14.44,	13.29,	1.73,	0.44,	2.01,	2.28,	12.41,	12.31,	12.30,	14.81,	13.75,	14.64,	13.57,	1699,	1683
118,	8224,	7820,	7902,	8529,	8952,	8579,	8590,	8405,	8394,	8322,	8882,	8861,	8364,	8998,	14.61,	14.44,	13.29,	1.73,	0.44,	2.01,	2.28,	12.41,	12.31,	12.30,	14.84,	13.75,	14.64,	13.57,	1699,	1685
119,	8216,	7822,	7895,	8527,	8964,	8556,	8567,	8388,	8390,	8324,	8872,	8864,	8358,	8993,	14.61,	14.44,	13.29,	1.73,	0.44,	2.01,	2.28,	12.41,	12.31,	12.30,	14.84,	13.79,	14.64,	13.57,	1700,	1685
120,	8218,	7816,	7885,	8518,	8954,	8545,	8550,	8380,	8385,	8308,	8864,	8861,	8356,	8988,	14.61,	14.44,	13.29,	1.73,	0.44,	2.01,	2.28,	12.41,	12.31,	12.30,	14.84,	13.79,	14.67,	13.57,	1698,	1686
121,	8221,	7808,	7886,	8510,	8935,	8552,	8554,	8385,	8372,	8289,	8838,	8844,	8337,	8975,	14.61,	14.44,	13.29,	1.73,	0.44,	2.01,	2.28,	12.41,	12.31,	12.30,	14.84,	13.79,	14.67,	13.60,	1700,	1685
122,	8214,	7803,	7888,	8498,	8964,	8562,	8566,	8393,	8374,	8292,	8838,	8839,	8335,	8974,	14.61,	14.44,	13.29,	1.73,	0.44,	2.01,	2.28,	12.41,	12.31,	12.30,	14.84,	13.79,	14.67,	13.60,	1699,	1684
123,	8198,	7789,	7876,	8476,	8989,	8561,	8565,	8391,	8381,	8306,	8887,	8854,	8363,	8981,	14.61,	14.44,	13.29,	1.73,	0.44,	2.01,	2.28,	12.41,	12.31,	12.30,	14.84,	13.76,	14.67,	13.60,	1700,	1683
124,	8192,	7776,	7871,	8464,	8970,	8553,	8550,	8382,	8381,	8311,	8911,	8865,	8374,	8981,	14.61,	14.44,	13.29,	1.73,	0.44,	2.01,	2.28,	12.41,	12.31,	12.30,	14.84,	13.76,	14.67,	13.60,	1700,	1682
125,	8203,	7787,	7891,	8483,	8959,	8553,	8549,	8385,	8384,	8310,	8892,	8864,	8361,	8982,	14.61,	14.44,	13.29,	1.73,	0.44,	2.01,	2.28,	12.41,	12.31,	12.30,	14.84,	13.76,	14.67,	13.59,	1700,	1682
126,	8200,	7800,	7895,	8488,	8961,	8557,	8560,	8390,	8386,	8314,	8872,	8851,	8344,	8975,	14.61,	14.44,	13.29,	1.73,	0.44,	2.01,	2.28,	12.41,	12.31,	12.30,	14.81,	13.76,	14.67,	13.59,	1701,	1681
127,	8185,	7792,	7871,	8469,	8962,	8561,	8572,	8404,	8390,	8308,	8858,	8834,	8341,	8967,	14.61,	14.44,	13.29,	1.73,	0.44,	2.01,	2.28,	12.41,	12.31,	12.30,	14.81,	13.75,	14.67,	13.59,	1700,	1683
0,	8185,	7788,	7877,	8478,	8964,	8559,	8566,	8397,	8381,	8294,	8868,	8837,	8342,	8971,	14.61,	14.44,	13.29,	1.73,	0.44,	2.01,	2.28,	12.41,	12.31,	12.30,	14.81,	13.75,	14.67,	13.59,	1700,	1683
1,	8180,	7787,	7875,	8480,	8958,	8569,	8565,	8395,	8384,	8320,	8864,	8831,	8343,	8966,	14.61,	14.41,	13.29,	1.73,	0.44,	2.01,	2.28,	12.41,	12.31,	12.30,	14.81,	13.75,	14.67,	13.59,	1700,	1682
2,	8171,	7779,	7863,	8466,	8964,	8579,	8572,	8418,	8406,	8323,	8860,	8817,	8351,	8970,	14.61,	14.41,	13.39,	1.73,	0.44,	2.01,	2.28,	12.41,	12.31,	12.30,	14.81,	13.75,	14.67,	13.59,	1699,	1684
3,	8161,	7777,	7859,	8459,	8960,	8572,	8576,	8422,	8404,	8312,	8866,	8818,	8350,	8974,	14.61,	14.41,	13.39,	1.72,	0.44,	2.01,	2.28,	12.41,	12.31,	12.30,	14.81,	13.75,	14.67,	13.59,	1700,	1684
4,	8162,	7782,	7862,	8462,	8976,	8565,	8574,	8406,	8383,	8314,	8864,	8826,	8345,	8973,	14.61,	14.41,	13.39,	1.72,	0.44,	2.01,	2.28,	12.41,	12.31,	12.30,	14.81,	13.75,	14.67,	13.59,	1700,	1683
5,	8166,	7781,	7858,	8466,	9001,	8567,	8575,	8411,	8390,	8313,	8867,	8822,	8347,	8972,	14.61,	14.41,	13.39,	1.72,	0.44,	2.06,	2.28,	12.41,	12.31,	12.30,	14.81,	13.75,	14.67,	13.59,	1700,	1685
6,	8157,	7778,	7854,	8460,	8990,	8571,	8574,	8413,	8398,	8310,	8877,	8812,	8350,	8967,	14.61,	14.41,	13.39,	1.72,	0.44,	2.06,	2.28,	12.41,	12.31,	12.30,	14.81,	13.75,	14.67,	13.59,	1700,	1683
7,	8163,	7786,	7866,	8463,	8981,	8570,	8567,	8407,	8398,	8332,	8884,	8821,	8360,	8980,	14.61,	14.41,	13.39,	1.72,	0.44,	2.06,	2.28,	12.43,	12.31,	12.30,	14.81,	13.75,	14.67,	13.59,	1699,	1684
8,	8191,	7800,	7882,	8482,	9001,	8577,	8574,	8413,	8405,	8354,	8896,	8841,	8372,	9000,	14.61,	14.41,	13.39,	1.72,	0.44,	2.06,	2.28,	12.43,	12.30,	12.30,	14.81,	13.75,	14.67,	13.59,	1701,	1683
9,	8193,	7794,	7875,	8481,	9001,	8583,	8581,	8404,	8399,	8335,	8891,	8831,	8357,	8989,	14.61,	14.41,	13.39,	1.72,	0.44,	2.06,	2.28,	12.43,	12.30,	12.28,	14.81,	13.75,	14.67,	13.59,	1699,	1685
10,	8175,	7779,	7860,	8462,	8959,	8575,	8573,	8378,	8378,	8302,	8870,	8813,	8346,	8980,	14.61,	14.41,	13.39,	1.72,	0.44,	2.06,	2.28,	12.43,	12.30,	12.28,	14.83,	13.75,	14.67,	13.59,	1700,	1686
11,	8178,	7781,	7864,	8453,	8951,	8565,	8566,	8372,	8376,	8302,	8878,	8824,	8354,	8998,	14.61,	14.41,	13.39,	1.72,	0.44,	2.06,	2.28,	12.43,	12.30,	12.28,	14.83,	13.78,	14.67,	13.59,	1699,	1686
12,	8187,	7783,	7871,	8454,	8981,	8573,	8583,	8391,	8390,	8325,	8889,	8829,	8354,	8999,	14.61,	14.41,	13.39,	1.72,	0.44,	2.06,	2.28,	12.43,	12.30,	12.28,	14.83,	13.78,	14.68,	13.59,	1699,	1686
13,	8188,	7779,	7873,	8456,	8985,	8589,	8592,	8403,	8399,	8337,	8878,	8819,	8355,	8995,	14.61,	14.41,	13.39,	1.72,	0.44,	2.06,	2.28,	12.43,	12.30,	12.28,	14.83,	13.78,	14.68,	13.57,	1698,	1685
14,	8190,	7789,	7875,	8461,	8970,	8585,	8578,	8397,	8406,	8331,	8883,	8822,	8366,	9005,	14.61,	14.41,	13.39,	1.72,	0.44,	2.06,	2.28,	12.43,	12.30,	12.28,	14.84,	13.78,	14.68,	13.57,	1698,	1686
15,	8179,	7795,	7870,	8463,	8980,	8578,	8578,	8389,	8403,	8324,	8894,	8824,	8366,	9005,	14.61,	14.41,	13.39,	1.72,	0.44,	2.06,	2.28,	12.43,	12.30,	12.28,	14.84,	13.78,	14.68,	13.57,	1698,	1685
16,	8174,	7783,	7864,	8460,	9008,	8579,	8581,	8388,	8390,	8325,	8886,	8818,	8359,	9000,	14.61,	14.41,	13.39,	1.72,	0.44,	2.06,	2.28,	12.43,	12.30,	12.28,	14.84,	13.78,	14.68,	13.57,	1698,	1683
17,	8180,	7782,	7867,	8464,	9013,	8581,	8572,	8390,	8388,	8329,	8880,	8824,	8362,	9008,	14.61,	14.41,	13.39,	1.72,	0.44,	2.06,	2.28,	12.43,	12.30,	12.28,	14.84,	13.78,	14.68,	13.57,	1698,	1682
18,	8169,	7795,	7860,	8468,	8997,	8577,	8568,	8379,	8389,	8324,	8881,	8822,	8357,	9000,	14.61,	14.41,	13.39,	1.72,	0.44,	2.06,	2.28,	12.43,	12.30,	12.28,	14.84,	13.78,	14.68,	13.57,	1699,	1682
19,	8167,	7800,	7858,	8472,	8983,	8572,	8573,	8371,	8383,	8317,	8882,	8816,	8349,	8992,	14.61,	14.41,	13.39,	1.72,	0.44,	2.06,	2.28,	12.43,	12.30,	12.28,	14.84,	13.78,	14.68,	13.57,	1698,	1681
20,	8192,	7805,	7879,	8483,	8974,	8577,	8580,	8394,	8398,	8326,	8899,	8834,	8363,	9011,	14.61,	14.41,	13.39,	1.72,	0.44,	2.06,	2.28,	12.43,	12.30,	12.28,	14.84,	13.78,	14.68,	13.57,	1699,	1682
21,	8197,	7801,	7885,	8482,	8969,	8580,	8583,	8420,	8413,	8338,	8912,	8842,	8371,	9018,	14.61,	14.41,	13.39,	1.72,	0.44,	2.06,	2.28,	12.43,	12.30,	12.28,	14.84,	13.78,	14.68,	13.57,	1698,	1683
22,	8179,	7786,	7868,	8465,	8978,	8575,	8581,	8409,	8387,	8326,	8891,	8821,	8351,	9006,	14.61,	14.41,	13.39,	1.72,	0.44,	2.06,	2.28,	12.43,	12.30,	12.28,	14.84,	13.78,	14.68,	13.57,	1699,	1683
23,	8186,	7786,	7865,	8461,	8997,	8569,	8567,	8397,	8376,	8309,	8876,	8813,	8345,	9013,	14.61,	14.41,	13.39,	1.72,	0.44,	2.06,	2.28,	12.43,	12.30,	12.28,	14.84,	13.78,	14.68,	13.57,	1698,	1683
24,	8199,	7794,	7878,	8472,	8991,	8558,	8549,	8399,	8391,	8304,	8880,	8826,	8355,	9024,	14.61,	14.41,	13.39,	1.72,	0.44,	2.06,	2.28,	12.43,	12.30,	12.28,	14.84,	13.78,	14.68,	13.57,	1698,	1684
25,	8194,	7791,	7878,	8473,	8970,	8551,	8543,	8383,	8376,	8284,	8886,	8823,	8352,	9018,	14.61,	14.41,	13.39,	1.72,	0.44,	2.06,	2.28,	12.43,	12.30,	12.28,	14.84,	13.78,	14.68,	13.57,	1699,	1681
26,	8187,	7789,	7873,	8466,	8973,	8558,	8551,	8369,	8355,	8270,	8894,	8818,	8348,	9023,	14.61,	14.41,	13.39,	1.72,	0.44,	2.06,	2.28,	12.43,	12.30,	12.28,	14.84,	13.78,	14.68,	13.57,	1698,	1682
27,	8189,	7790,	7879,	8463,	9003,	8567,	8555,	8380,	8369,	8297,	8904,	8827,	8355,	9037,	14.61,	14.41,	13.39,	1.72,	0.44,	2.06,	2.28,	12.43,	12.30,	12.28,	14.84,	13.78,	14.68,	13.57,	1699,	1681
28,	8187,	7783,	7870,	8464,	9011,	8564,	8552,	8391,	8389,	8320,	8900,	8830,	8356,	9036,	14.61,	14.41,	13.39,	1.72,	0.44,	2.06,	2.28,	12.43,	12.30,	12.28,	14.84,	13.78,	14.68,	13.57,	1699,	1681
29,	8172,	7778,	7855,	8453,	8969,	8564,	8557,	8398,	8392,	8318,	8888,	8817,	8354,	9032,	14.61,	14.41,	13.39,	1.72,	0.44,	2.06,	2.28,	12.43,	12.30,	12.28,	14.84,	13.78,	14.68,	13.57,	1699,	1681
30,	8163,	7779,	7858,	8439,	8951,	8566,	8565,	8411,	8393,	8315,	8879,	8807,	8346,	9025,	14.61,	14.41,	13.39,	1.72,	0.44,	2.06,	2.28,	12.43,	12.30,	12.28,	14.84,	13.78,	14.68,	13.57,	1698,	1683
31,	8164,	7776,	7858,	8444,	8995,	8574,	8572,	8415,	8401,	8315,	8873,	8798,	8337,	9015,	14.61,	14.41,	13.39,	1.72,	0.44,	2.06,	2.28,	12.43,	12.30,	12.28,	14.84,	13.78,	14.68,	13.57,	1699,	1683
32,	8162,	7770,	7851,	8445,	9011,	8582,	8578,	8413,	8408,	8317,	8873,	8795,	8343,	9026,	14.61,	14.41,	13.39,	1.72,	0.44,	2.06,	2.28,	12.43,	12.30,	12.28,	14.84,	13.78,	14.68,	13.57,	1699,	1683
33,	8158,	7761,	7842,	8422,	8973,	8576,	8578,	8426,	8410,	8328,	8877,	8802,	8362,	9039,	14.61,	14.41,	13.39,	1.72,	0.44,	2.06,	2.28,	12.43,	12.30,	12.28,	14.84,	13.78,	14.68,	13.57,	1700,	1682
34,	8157,	7761,	7838,	8419,	8956,	8569,	8574,	8435,	8416,	8334,	8881,	8803,	8368,	9037,	14.61,	14.41,	13.39,	1.72,	0.44,	2.06,	2.28,	12.43,	12.30,	12.28,	14.84,	13.78,	14.68,	13.57,	1699,	1682
35,	8159,	7775,	7851,	8457,	8970,	8573,	8567,	8427,	8414,	8322,	8867,	8791,	8339,	9033,	14.61,	14.41,	13.39,	1.72,	0.44,	2.06,	2.28,	12.43,	12.30,	12.28,	14.84,	13.78,	14.68,	13.57,	1700,	1682
36,	8161,	7786,	7865,	8479,	8980,	8568,	8553,	8412,	8390,	8304,	8830,	8784,	8306,	9033,	14.61,	14.41,	13.39,	1.72,	0.44,	2.06,	2.28,	12.43,	12.30,	12.28,	14.84,	13.78,	14.68,	13.57,	1701,	1681
37,	8157,	7779,	7858,	8458,	8970,	8553,	8544,	8394,	8365,	8283,	8814,	8785,	8309,	9027,	14.61,	14.41,	13.39,	1.72,	0.44,	2.06,	2.28,	12.43,	12.30,	12.28,	14.84,	13.78,	14.68,	13.57,	1699,	1683
38,	8153,	7772,	7857,	8447,	8955,	8550,	8541,	8384,	8363,	8278,	8838,	8785,	8321,	9025,	14.61,	14.41,	13.39,	1.72,	0.44,	2.06,	2.28,	12.43,	12.30,	12.28,	14.84,	13.78,	14.68,	13.57,	1701,	1683
39,	8157,	7772,	7867,	8459,	8957,	8554,	8542,	8384,	8361,	8285,	8853,	8792,	8318,	9030,	14.61,	14.41,	13.39,	1.72,	0.44,	2.06,	2.28,	12.43,	12.30,	12.28,	14.84,	13.78,	14.68,	13.57,	1699,	1684
40,	8158,	7766,	7862,	8454,	8970,	8548,	8542,	8382,	8354,	8278,	8838,	8793,	8312,	9036,	14.61,	14.41,	13.39,	1.72,	0.44,	2.06,	2.28,	12.43,	12.30,	12.28,	14.84,	13.78,	14.68,	13.57,	1700,	1684
41,	8154,	7764,	7858,	8445,	8983,	8547,	8543,	8381,	8360,	8273,	8834,	8782,	8319,	9039,	14.61,	14.41,	13.39,	1.72,	0.44,	2.06,	2.28,	12.43,	12.30,	12.28,	14.84,	13.78,	14.68,	13.57,	1699,	1684
42,	8161,	7773,	7869,	8449,	8983,	8563,	8555,	8405,	8379,	8304,	8855,	8790,	8338,	9050,	14.61,	14.41,	13.39,	1.72,	0.44,	2.06,	2.28,	12.43,	12.30,	12.28,	14.84,	13.78,	14.68,	13.57,	1699,	1684
43,	8165,	7781,	7882,	8456,	8973,	8574,	8567,	8429,	8400,	8338,	8885,	8811,	8358,	9072,	14.61,	14.41,	13.39,	1.72,	0.44,	2.06,	2.28,	12.43,	12.30,	12.28,	14.84,	13.78,	14.68,	13.57,	1697,	1683
44,	8164,	7784,	7888,	8462,	8982,	8569,	8566,	8434,	8412,	8335,	8904,	8823,	8370,	9085,	14.61,	14.41,	13.39,	1.72,	0.44,	2.06,	2.28,	12.43,	12.30,	12.28,	14.84,	13.78,	14.68,	13.57,	1698,	1683
45,	8173,	7790,	7887,	8467,	8998,	8571,	8579,	8452,	8422,	8337,	8898,	8821,	8379,	9084,	14.61,	14.41,	13.39,	1.72,	0.44,	2.06,	2.28,	12.43,	12.30,	12.28,	14.84,	13.78,	14.68,	13.57,	1697,	1682
46,	8179,	7790,	7884,	8463,	8976,	8575,	8591,	8471,	8432,	8350,	8885,	8813,	8374,	9082,	14.61,	14.41,	13.39,	1.72,	0.44,	2.06,	2.28,	12.43,	12.30,	12.28,	14.84,	13.78,	14.68,	13.57,	1696,	1683
47,	8167,	7783,	7882,	8457,	8958,	8564,	8564,	8452,	8414,	8321,	8878,	8799,	8353,	9072,	14.61,	14.41,	13.39,	1.72,	0.44,	2.06,	2.28,	12.43,	12.30,	12.28,	14.84,	13.78,	14.68,	13.57,	1697,	1682
48,	8162,	7782,	7891,	8462,	8983,	8556,	8541,	8430,	8392,	8290,	8869,	8786,	8345,	9066,	14.61,	14.41,	13.39,	1.72,	0.44,	2.06,	2.28,	12.43,	12.30,	12.28,	14.84,	13.78,	14.68,	13.57,	1696,	1682
49,	8169,	7784,	7899,	8461,	8988,	8561,	8558,	8446,	8410,	8313,	8869,	8788,	8352,	9075,	14.61,	14.41,	13.39,	1.72,	0.44,	2.06,	2.28,	12.43,	12.30,	12.28,	14.84,	13.78,	14.68,	13.57,	1697,	1681
50,	8166,	7781,	7889,	8451,	8976,	8567,	8569,	8456,	8417,	8339,	8882,	8792,	8357,	9080,	14.61,	14.41,	13.39,	1.72,	0.44,	2.06,	2.28,	12.43,	12.30,	12.28,	14.84,	13.78,	14.68,	13.57,	1696,	1680
51,	8156,	7779,	7880,	8446,	8977,	8568,	8547,	8423,	8380,	8319,	8876,	8783,	8346,	9071,	14.61,	14.41,	13.39,	1.72,	0.44,	2.06,	2.28,	12.43,	12.30,	12.28,	14.84,	13.78,	14.68,	13.57,	1697,	1681
52,	8159,	7783,	7890,	8455,	8981,	8572,	8532,	8404,	8368,	8289,	8857,	8779,	8328,	9066,	14.61,	14.41,	13.39,	1.72,	0.44,	2.06,	2.28,	12.43,	12.30,	12.28,	14.84,	13.78,	14.68,	13.57,	1697,	1681
53,	8167,	7789,	7901,	8466,	8982,	8561,	8536,	8409,	8381,	8297,	8856,	8790,	8329,	9074,	14.61,	14.41,	13.39,	1.72,	0.44,	2.06,	2.28,	12.43,	12.30,	12.28,	14.84,	13.78,	14.68,	13.57,	1697,	1685
54,	8167,	7789,	7896,	8461,	8962,	8554,	8543,	8408,	8375,	8310,	8863,	8784,	8343,	9083,	14.61,	14.41,	13.39,	1.72,	0.44,	2.06,	2.28,	12.43,	12.30,	12.28,	14.84,	13.78,	14.68,	13.57,	1697,	1685
55,	8159,	7785,	7886,	8449,	8943,	8563,	8541,	8398,	8356,	8283,	8845,	8764,	8332,	9078,	14.61,	14.41,	13.39,	1.72,	0.44,	2.06,	2.28,	12.43,	12.30,	12.28,	14.84,	13.78,	14.68,	13.57,	1696,	1690
56,	8158,	7777,	7884,	8441,	8976,	8558,	8541,	8397,	8344,	8258,	8839,	8767,	8311,	9070,	14.61,	14.41,	13.39,	1.72,	0.44,	2.06,	2.28,	12.43,	12.30,	12.28,	14.84,	13.78,	14.68,	13.57,	1696,	1691
57,	8156,	7768,	7883,	8440,	9017,	8546,	8544,	8393,	8338,	8262,	8846,	8775,	8306,	9068,	14.61,	14.41,	13.39,	1.72,	0.44,	2.06,	2.28,	12.43,	12.30,	12.28,	14.84,	13.78,	14.68,	13.57,	1696,	1695
58,	8147,	7762,	7875,	8436,	8992,	8542,	8528,	8372,	8330,	8255,	8809,	8752,	8285,	9061,	14.61,	14.41,	13.39,	1.72,	0.44,	2.06,	2.28,	12.43,	12.30,	12.28,	14.84,	13.78,	14.68,	13.57,	1695,	1693
59,	8149,	7767,	7873,	8428,	8953,	8542,	8524,	8379,	8336,	8259,	8789,	8741,	8275,	9067,	14.61,	14.41,	13.39,	1.72,	0.44,	2.06,	2.28,	12.43,	12.30,	12.28,	14.84,	13.78,	14.68,	13.57,	1693,	1693
60,	8156,	7774,	7876,	8424,	8963,	8544,	8543,	8417,	8368,	8297,	8859,	8770,	8319,	9091,	14.61,	14.41,	13.39,	1.72,	0.44,	2.06,	2.28,	12.43,	12.30,	12.28,	14.84,	13.78,	14.68,	13.57,	1694,	1693
61,	8158,	7771,	7884,	8414,	8979,	8556,	8554,	8441,	8403,	8327,	8941,	8810,	8371,	9112,	14.61,	14.41,	13.39,	1.72,	0.44,	2.06,	2.28,	12.43,	12.30,	12.28,	14.84,	13.78,	14.68,	13.57,	1693,	1693
62,	8159,	7765,	7887,	8395,	8978,	8568,	8559,	8450,	8418,	8337,	8982,	8842,	8401,	9130,	14.61,	14.41,	13.39,	1.72,	0.44,	2.06,	2.28,	12.43,	12.30,	12.28,	14.84,	13.78,	14.68,	13.57,	1693,	1697
63,	8159,	7756,	7889,	8378,	8966,	8575,	8566,	8457,	8428,	8353,	9010,	8860,	8416,	9139,	14.61,	14.41,	13.39,	1.72,	0.44,	2.06,	2.28,	12.43,	12.30,	12.28,	14.84,	13.78,	14.68,	13.57,	1692,	1698
64,	8157,	7748,	7890,	8368,	8963,	8586,	8566,	8453,	8433,	8367,	9027,	8853,	8419,	9133,	14.61,	14.41,	13.39,	1.72,	0.44,	2.06,	2.28,	12.43,	12.30,	12.28,	14.84,	13.78,	14.68,	13.57,	1692,	1701
65,	8157,	7745,	7880,	8356,	8972,	8592,	8572,	8445,	8428,	8359,	9010,	8833,	8410,	9121,	14.61,	14.40,	13.39,	1.72,	0.44,	2.06,	2.28,	12.43,	12.30,	12.28,	14.84,	13.78,	14.68,	13.57,	1693,	1701
66,	8149,	7742,	7868,	8344,	8974,	8586,	8584,	8453,	8425,	8346,	8991,	8821,	8402,	9117,	14.61,	14.40,	13.39,	1.72,	0.44,	2.06,	2.28,	12.43,	12.30,	12.28,	14.84,	13.78,	14.68,	13.57,	1693,	1701
67,	8142,	7741,	7870,	8343,	8982,	8575,	8578,	8463,	8432,	8365,	8994,	8816,	8401,	9125,	14.61,	14.40,	13.39,	1.75,	0.44,	2.06,	2.28,	12.43,	12.30,	12.28,	14.84,	13.78,	14.68,	13.57,	1693,	1699
68,	8150,	7743,	7883,	8344,	8987,	8573,	8575,	8474,	8443,	8386,	9002,	8820,	8407,	9141,	14.61,	14.40,	13.39,	1.75,	0.46,	2.06,	2.28,	12.43,	12.30,	12.28,	14.84,	13.78,	14.68,	13.57,	1693,	1698
69,	8159,	7744,	7885,	8348,	8972,	8570,	8592,	8495,	8453,	8374,	9000,	8835,	8418,	9159,	14.61,	14.40,	13.39,	1.75,	0.46,	2.01,	2.28,	12.43,	12.30,	12.28,	14.84,	13.78,	14.68,	13.57,	1693,	1698
70,	8158,	7747,	7881,	8353,	8960,	8567,	8598,	8502,	8455,	8369,	8995,	8834,	8417,	9163,	14.61,	14.40,	13.39,	1.75,	0.46,	2.01,	2.28,	12.43,	12.30,	12.28,	14.84,	13.78,	14.68,	13.57,	1693,	1699
71,	8159,	7752,	7887,	8354,	8977,	8585,	8597,	8493,	8443,	8377,	8994,	8831,	8411,	9161,	14.61,	14.40,	13.39,	1.75,	0.46,	2.01,	2.28,	12.40,	12.30,	12.28,	14.84,	13.78,	14.68,	13.57,	1693,	1696
72,	8163,	7760,	7894,	8365,	8991,	8591,	8599,	8499,	8440,	8373,	8998,	8841,	8415,	9167,	14.61,	14.40,	13.39,	1.75,	0.46,	2.01,	2.28,	12.40,	12.31,	12.28,	14.84,	13.78,	14.68,	13.57,	1693,	1694
73,	8162,	7759,	7890,	8368,	8987,	8577,	8594,	8510,	8448,	8369,	9007,	8841,	8422,	9179,	14.61,	14.40,	13.39,	1.75,	0.46,	2.01,	2.28,	12.40,	12.31,	12.30,	14.84,	13.78,	14.68,	13.57,	1694,	1692
74,	8161,	7748,	7881,	8347,	8992,	8588,	8593,	8504,	8446,	8375,	9003,	8827,	8417,	9175,	14.61,	14.40,	13.39,	1.75,	0.46,	2.01,	2.28,	12.40,	12.31,	12.30,	14.83,	13.78,	14.68,	13.57,	1695,	1692
75,	8160,	7743,	7882,	8340,	8986,	8614,	8604,	8510,	8449,	8387,	8992,	8821,	8412,	9168,	14.61,	14.40,	13.39,	1.75,	0.46,	2.01,	2.28,	12.40,	12.31,	12.30,	14.83,	13.75,	14.68,	13.57,	1694,	1692
76,	8156,	7746,	7890,	8351,	8980,	8597,	8597,	8520,	8466,	8402,	9007,	8833,	8424,	9183,	14.61,	14.40,	13.39,	1.75,	0.46,	2.01,	2.28,	12.40,	12.31,	12.30,	14.83,	13.75,	14.65,	13.57,	1695,	1696
77,	8159,	7746,	7891,	8347,	8994,	8563,	8566,	8491,	8466,	8411,	9033,	8841,	8438,	9193,	14.61,	14.40,	13.39,	1.75,	0.46,	2.01,	2.28,	12.40,	12.31,	12.30,	14.83,	13.75,	14.65,	13.60,	1695,	1698
78,	8157,	7748,	7891,	8344,	8990,	8558,	8541,	8451,	8450,	8403,	9031,	8836,	8438,	9183,	14.61,	14.40,	13.39,	1.75,	0.46,	2.01,	2.28,	12.40,	12.31,	12.30,	14.83,	13.75,	14.65,	13.60,	1694,	1704
79,	8141,	7751,	7901,	8353,	8970,	8569,	8535,	8432,	8435,	8383,	9015,	8822,	8430,	9169,	14.61,	14.40,	13.39,	1.75,	0.46,	2.01,	2.28,	12.40,	12.31,	12.30,	14.83,	13.79,	14.65,	13.60,	1696,	1707
80,	8128,	7746,	7895,	8352,	8972,	8570,	8541,	8412,	8412,	8368,	9005,	8816,	8419,	9169,	14.61,	14.40,	13.39,	1.75,	0.46,	2.01,	2.28,	12.40,	12.31,	12.30,	14.83,	13.79,	14.65,	13.60,	1695,	1709
81,	8132,	7743,	7880,	8346,	8986,	8560,	8545,	8398,	8395,	8368,	8997,	8817,	8409,	9171,	14.61,	14.40,	13.39,	1.75,	0.46,	2.01,	2.28,	12.40,	12.31,	12.30,	14.83,	13.79,	14.65,	13.59,	1696,	1709
82,	8140,	7746,	7887,	8353,	8991,	8555,	8542,	8416,	8401,	8369,	8998,	8815,	8409,	9168,	14.61,	14.40,	13.39,	1.75,	0.46,	2.01,	2.28,	12.40,	12.31,	12.30,	14.84,	13.79,	14.65,	13.59,	1696,	1704
83,	8135,	7750,	7901,	8365,	8994,	8559,	8546,	8427,	8404,	8370,	9010,	8814,	8414,	9169,	14.61,	14.40,	13.39,	1.75,	0.46,	2.01,	2.28,	12.40,	12.31,	12.30,	14.84,	13.78,	14.65,	13.59,	1695,	1701
84,	8136,	7747,	7902,	8364,	8973,	8554,	8545,	8411,	8390,	8369,	9014,	8819,	8408,	9173,	14.61,	14.40,	13.39,	1.75,	0.46,	2.01,	2.28,	12.40,	12.31,	12.30,	14.84,	13.78,	14.65,	13.59,	1695,	1699
85,	8155,	7745,	7907,	8364,	8964,	8548,	8540,	8407,	8386,	8355,	9010,	8832,	8406,	9187,	14.61,	14.40,	13.39,	1.75,	0.46,	2.01,	2.28,	12.40,	12.31,	12.30,	14.84,	13.78,	14.65,	13.57,	1694,	1700
86,	8167,	7760,	7933,	8391,	8986,	8552,	8545,	8420,	8389,	8350,	9019,	8849,	8417,	9204,	14.61,	14.40,	13.39,	1.75,	0.46,	2.01,	2.28,	12.40,	12.31,	12.30,	14.83,	13.78,	14.65,	13.57,	1693,	1702
87,	8162,	7774,	7959,	8412,	8965,	8550,	8547,	8408,	8374,	8343,	9021,	8864,	8409,	9203,	14.61,	14.40,	13.39,	1.75,	0.46,	2.01,	2.28,	12.40,	12.31,	12.30,	14.83,	13.79,	14.65,	13.57,	1690,	1708
88,	8174,	7775,	7982,	8425,	8936,	8544,	8535,	8390,	8365,	8318,	9019,	8894,	8397,	9202,	14.61,	14.40,	13.39,	1.75,	0.46,	2.01,	2.28,	12.40,	12.31,	12.30,	14.83,	13.79,	14.68,	13.57,	1690,	1712
89,	8196,	7786,	8038,	8473,	8984,	8546,	8524,	8396,	8377,	8324,	9069,	8956,	8429,	9232,	14.61,	14.40,	13.39,	1.75,	0.46,	2.01,	2.28,	12.40,	12.31,	12.30,	14.83,	13.79,	14.68,	13.57,	1688,	1716
90,	8201,	7808,	8094,	8533,	9030,	8542,	8525,	8407,	8378,	8355,	9111,	9012,	8459,	9258,	14.61,	14.40,	13.39,	1.75,	0.46,	2.01,	2.28,	12.40,	12.31,	12.30,	14.83,	13.79,	14.68,	13.57,	1689,	1716
91,	8208,	7817,	8107,	8557,	9009,	8533,	8527,	8405,	8364,	8353,	9096,	9031,	8451,	9256,	14.61,	14.40,	13.39,	1.75,	0.46,	2.01,	2.28,	12.40,	12.31,	12.30,	14.83,	13.79,	14.68,	13.57,	1688,	1715
92,	8222,	7820,	8108,	8566,	9003,	8531,	8527,	8405,	8374,	8341,	9108,	9039,	8457,	9261,	14.61,	14.40,	13.39,	1.75,	0.46,	2.01,	2.28,	12.40,	12.31,	12.30,	14.83,	13.79,	14.68,	13.57,	1688,	1713
93,	8223,	7830,	8119,	8579,	9037,	8542,	8536,	8419,	8397,	8352,	9144,	9045,	8483,	9269,	14.61,	14.40,	13.39,	1.75,	0.46,	2.01,	2.28,	12.40,	12.31,	12.30,	14.83,	13.79,	14.68,	13.57,	1688,	1710
94,	8216,	7836,	8107,	8573,	9038,	8556,	8547,	8428,	8389,	8356,	9106,	9019,	8470,	9254,	14.61,	14.40,	13.39,	1.75,	0.46,	2.01,	2.28,	12.40,	12.31,	12.30,	14.86,	13.79,	14.68,	13.57,	1686,	1711
95,	8203,	7836,	8067,	8559,	9034,	8558,	8543,	8419,	8373,	8347,	9040,	8966,	8432,	9231,	14.61,	14.40,	13.39,	1.75,	0.46,	2.01,	2.28,	12.40,	12.31,	12.30,	14.86,	13.79,	14.68,	13.57,	1687,	1711
96,	8172,	7820,	8016,	8535,	9050,	8550,	8536,	8407,	8375,	8329,	9000,	8897,	8400,	9205,	14.61,	14.40,	13.39,	1.75,	0.46,	2.01,	2.28,	12.40,	12.31,	12.30,	14.86,	13.79,	14.64,	13.57,	1686,	1714
97,	8148,	7799,	7971,	8496,	9056,	8553,	8536,	8404,	8377,	8310,	8953,	8823,	8370,	9170,	14.61,	14.40,	13.39,	1.75,	0.46,	2.01,	2.28,	12.40,	12.31,	12.30,	14.86,	13.79,	14.64,	13.57,	1686,	1715
98,	8151,	7800,	7954,	8487,	9046,	8570,	8547,	8414,	8381,	8328,	8933,	8800,	8370,	9160,	14.61,	14.40,	13.39,	1.75,	0.46,	2.01,	2.28,	12.40,	12.31,	12.30,	14.86,	13.79,	14.64,	13.57,	1684,	1716
99,	8165,	7813,	7960,	8500,	9036,	8581,	8571,	8429,	8392,	8354,	8950,	8817,	8397,	9181,	14.61,	14.40,	13.39,	1.75,	0.46,	2.01,	2.28,	12.40,	12.31,	12.30,	14.86,	13.79,	14.64,	13.57,	1684,	1716
100,	8156,	7804,	7953,	8491,	9053,	8584,	8577,	8420,	8389,	8351,	8952,	8809,	8402,	9189,	14.61,	14.40,	13.39,	1.75,	0.46,	2.01,	2.28,	12.40,	12.31,	12.30,	14.86,	13.79,	14.65,	13.57,	1683,	1716
101,	8133,	7785,	7928,	8466,	9084,	8584,	8554,	8393,	8377,	8337,	8934,	8775,	8380,	9172,	14.61,	14.40,	13.39,	1.75,	0.46,	2.01,	2.28,	12.40,	12.31,	12.30,	14.86,	13.79,	14.65,	13.60,	1684,	1714
102,	8127,	7785,	7916,	8459,	9067,	8574,	8545,	8388,	8380,	8328,	8917,	8760,	8372,	9164,	14.61,	14.40,	13.39,	1.75,	0.46,	2.01,	2.28,	12.40,	12.31,	12.30,	14.83,	13.79,	14.65,	13.60,	1682,	1712
103,	8132,	7787,	7917,	8459,	9036,	8570,	8557,	8406,	8386,	8330,	8910,	8757,	8378,	9164,	14.61,	14.40,	13.39,	1.75,	0.46,	2.01,	2.28,	12.40,	12.31,	12.30,	14.83,	13.76,	14.65,	13.60,	1682,	1714
104,	8134,	7779,	7911,	8449,	9064,	8575,	8557,	8409,	8383,	8348,	8910,	8745,	8380,	9160,	14.61,	14.40,	13.39,	1.75,	0.46,	2.01,	2.28,	12.40,	12.31,	12.30,	14.83,	13.76,	14.65,	13.60,	1683,	1713
105,	8125,	7772,	7898,	8432,	9095,	8575,	8550,	8399,	8377,	8355,	8907,	8731,	8373,	9152,	14.61,	14.40,	13.39,	1.75,	0.46,	2.01,	2.28,	12.40,	12.31,	12.30,	14.83,	13.76,	14.65,	13.60,	1681,	1713
106,	8112,	7761,	7892,	8418,	9068,	8571,	8548,	8398,	8371,	8332,	8898,	8726,	8356,	9139,	14.61,	14.40,	13.39,	1.75,	0.46,	2.01,	2.28,	12.40,	12.31,	12.30,	14.81,	13.76,	14.65,	13.60,	1682,	1710
107,	8118,	7759,	7899,	8428,	9043,	8566,	8543,	8403,	8371,	8320,	8899,	8726,	8353,	9146,	14.61,	14.40,	13.39,	1.75,	0.46,	2.01,	2.28,	12.40,	12.31,	12.30,	14.81,	13.79,	14.65,	13.60,	1681,	1711
108,	8132,	7781,	7907,	8450,	9045,	8561,	8545,	8404,	8379,	8339,	8910,	8729,	8377,	9166,	14.61,	14.40,	13.39,	1.75,	0.46,	2.01,	2.28,	12.40,	12.31,	12.30,	14.81,	13.79,	14.65,	13.60,	1683,	1709
109,	8134,	7791,	7913,	8450,	9044,	8555,	8547,	8404,	8378,	8349,	8916,	8733,	8387,	9171,	14.61,	14.40,	13.39,	1.75,	0.46,	2.01,	2.28,	12.40,	12.31,	12.30,	14.81,	13.79,	14.65,	13.61,	1682,	1706
110,	8133,	7780,	7921,	8445,	9034,	8556,	8547,	8410,	8379,	8340,	8916,	8735,	8373,	9158,	14.61,	14.40,	13.39,	1.75,	0.46,	2.01,	2.28,	12.40,	12.31,	12.30,	14.86,	13.79,	14.65,	13.61,	1683,	1705
111,	8135,	7779,	7917,	8452,	9015,	8569,	8565,	8427,	8400,	8343,	8911,	8727,	8369,	9146,	14.61,	14.40,	13.39,	1.75,	0.46,	2.01,	2.28,	12.40,	12.31,	12.30,	14.86,	13.76,	14.65,	13.61,	1683,	1703
112,	8130,	7781,	7911,	8448,	9013,	8576,	8577,	8439,	8412,	8343,	8901,	8719,	8372,	9142,	14.61,	14.40,	13.39,	1.75,	0.46,	2.01,	2.28,	12.40,	12.31,	12.30,	14.86,	13.76,	14.65,	13.61,	1685,	1704
113,	8127,	7778,	7919,	8432,	9032,	8572,	8564,	8433,	8400,	8332,	8899,	8721,	8368,	9142,	14.61,	14.40,	13.39,	1.75,	0.46,	2.01,	2.28,	12.40,	12.31,	12.30,	14.86,	13.76,	14.65,	13.57,	1685,	1705
114,	8129,	7779,	7923,	8422,	9039,	8577,	8565,	8436,	8404,	8352,	8913,	8728,	8372,	9144,	14.61,	14.40,	13.39,	1.75,	0.46,	2.01,	2.28,	12.40,	12.31,	12.30,	14.83,	13.76,	14.65,	13.57,	1686,	1708
115,	8131,	7772,	7914,	8416,	9037,	8598,	8588,	8460,	8432,	8378,	8915,	8723,	8373,	9140,	14.61,	14.40,	13.39,	1.75,	0.46,	2.01,	2.28,	12.40,	12.31,	12.30,	14.83,	13.75,	14.65,	13.57,	1688,	1706
116,	8122,	7753,	7906,	8408,	9039,	8594,	8587,	8459,	8428,	8361,	8895,	8707,	8359,	9133,	14.61,	14.40,	13.39,	1.75,	0.46,	2.01,	2.28,	12.40,	12.31,	12.30,	14.83,	13.75,	14.68,	13.57,	1687,	1708
117,	8107,	7746,	7903,	8401,	9020,	8573,	8575,	8440,	8403,	8335,	8886,	8696,	8358,	9128,	14.61,	14.40,	13.39,	1.75,	0.46,	2.01,	2.28,	12.40,	12.31,	12.30,	14.83,	13.75,	14.68,	13.61,	1690,	1705
118,	8111,	7756,	7904,	8398,	8994,	8577,	8585,	8446,	8408,	8345,	8894,	8698,	8370,	9134,	14.61,	14.40,	13.39,	1.75,	0.46,	2.01,	2.28,	12.40,	12.31,	12.30,	14.83,	13.75,	14.68,	13.61,	1691,	1702
119,	8127,	7767,	7911,	8405,	8996,	8587,	8588,	8453,	8418,	8353,	8894,	8697,	8362,	9141,	14.61,	14.40,	13.39,	1.75,	0.46,	2.01,	2.28,	12.40,	12.31,	12.30,	14.83,	13.75,	14.68,	13.61,	1692,	1700
120,	8128,	7775,	7921,	8406,	9010,	8577,	8567,	8439,	8402,	8341,	8886,	8700,	8353,	9138,	14.61,	14.40,	13.39,	1.75,	0.46,	2.01,	2.28,	12.40,	12.31,	12.30,	14.83,	13.75,	14.68,	13.61,	1693,	1698
121,	8127,	7773,	7935,	8405,	9008,	8570,	8554,	8425,	8386,	8341,	8890,	8709,	8362,	9142,	14.61,	14.40,	13.39,	1.75,	0.46,	2.01,	2.28,	12.40,	12.31,	12.30,	14.83,	13.75,	14.68,	13.60,	1694,	1698
122,	8132,	7757,	7940,	8406,	8987,	8579,	8564,	8421,	8381,	8334,	8883,	8704,	8357,	9142,	14.61,	14.40,	13.39,	1.75,	0.46,	2.01,	2.28,	12.40,	12.31,	12.30,	14.81,	13.75,	14.68,	13.60,	1694,	1699
123,	8130,	7758,	7934,	8400,	8979,	8579,	8557,	8415,	8372,	8313,	8868,	8686,	8335,	9134,	14.61,	14.40,	13.39,	1.75,	0.46,	2.01,	2.28,	12.40,	12.31,	12.30,	14.81,	13.76,	14.68,	13.60,	1695,	1699
124,	8140,	7775,	7948,	8403,	8979,	8568,	8541,	8406,	8360,	8312,	8873,	8696,	8339,	9143,	14.61,	14.40,	13.39,	1.75,	0.46,	2.01,	2.28,	12.40,	12.31,	12.30,	14.81,	13.76,	14.65,	13.60,	1695,	1698
125,	8160,	7785,	7972,	8417,	8951,	8563,	8549,	8400,	8358,	8315,	8888,	8720,	8363,	9163,	14.61,	14.40,	13.39,	1.75,	0.46,	2.01,	2.28,	12.40,	12.31,	12.30,	14.81,	13.76,	14.65,	13.59,	1696,	1695
126,	8161,	7785,	7985,	8421,	8946,	8567,	8564,	8409,	8374,	8311,	8889,	8725,	8367,	9163,	14.61,	14.40,	13.39,	1.75,	0.46,	2.01,	2.28,	12.40,	12.31,	12.30,	14.81,	13.76,	14.65,	13.59,	1695,	1695
127,	8152,	7786,	7991,	8411,	8994,	8577,	8563,	8416,	8387,	8320,	8889,	8723,	8354,	9157,	14.61,	14.40,	13.39,	1.75,	0.46,	2.01,	2.28,	12.40,	12.31,	12.30,	14.81,	13.79,	14.65,	13.59,	1696,	1695
0,	8162,	7787,	7994,	8420,	8981,	8563,	8546,	8398,	8370,	8316,	8897,	8723,	8372,	9174,	14.61,	14.40,	13.39,	1.75,	0.46,	2.01,	2.28,	12.40,	12.31,	12.30,	14.81,	13.79,	14.65,	13.59,	1696,	1695
1,	8160,	7784,	8000,	8417,	8967,	8556,	8542,	8407,	8381,	8339,	8895,	8731,	8378,	9179,	14.61,	14.43,	13.39,	1.75,	0.46,	2.01,	2.28,	12.40,	12.31,	12.30,	14.81,	13.79,	14.65,	13.59,	1697,	1693
2,	8157,	7784,	7996,	8412,	8983,	8571,	8544,	8405,	8381,	8358,	8905,	8734,	8376,	9178,	14.61,	14.43,	13.39,	1.75,	0.46,	2.01,	2.28,	12.40,	12.31,	12.30,	14.81,	13.79,	14.65,	13.59,	1697,	1692
3,	8159,	7792,	7999,	8415,	8978,	8574,	8545,	8401,	8373,	8343,	8914,	8734,	8380,	9179,	14.61,	14.43,	13.39,	1.73,	0.46,	2.01,	2.28,	12.40,	12.31,	12.30,	14.81,	13.79,	14.65,	13.59,	1696,	1692
4,	8161,	7805,	8011,	8422,	8969,	8560,	8543,	8404,	8375,	8336,	8915,	8741,	8384,	9183,	14.61,	14.43,	13.39,	1.73,	0.46,	2.01,	2.28,	12.40,	12.31,	12.30,	14.81,	13.79,	14.65,	13.59,	1696,	1693
5,	8156,	7799,	8006,	8417,	8971,	8561,	8547,	8406,	8376,	8341,	8906,	8738,	8371,	9169,	14.61,	14.43,	13.39,	1.73,	0.46,	2.06,	2.28,	12.40,	12.31,	12.30,	14.81,	13.79,	14.65,	13.59,	1697,	1692
6,	8155,	7791,	8001,	8411,	8971,	8564,	8551,	8402,	8377,	8340,	8904,	8727,	8368,	9158,	14.61,	14.43,	13.39,	1.73,	0.46,	2.06,	2.30,	12.40,	12.31,	12.30,	14.81,	13.79,	14.65,	13.59,	1695,	1695
7,	8156,	7794,	8008,	8413,	8962,	8559,	8551,	8415,	8386,	8337,	8912,	8727,	8388,	9165,	14.61,	14.43,	13.39,	1.73,	0.46,	2.06,	2.30,	12.43,	12.31,	12.30,	14.81,	13.79,	14.65,	13.59,	1697,	1694
8,	8142,	7789,	8006,	8412,	8956,	8569,	8560,	8427,	8383,	8329,	8905,	8724,	8390,	9164,	14.61,	14.43,	13.39,	1.73,	0.46,	2.06,	2.30,	12.43,	12.21,	12.30,	14.81,	13.79,	14.65,	13.59,	1696,	1694
9,	8122,	7773,	7997,	8402,	8956,	8582,	8572,	8414,	8367,	8328,	8890,	8715,	8368,	9149,	14.61,	14.43,	13.39,	1.73,	0.46,	2.06,	2.30,	12.43,	12.21,	12.27,	14.81,	13.79,	14.65,	13.59,	1697,	1695
10,	8129,	7771,	8006,	8401,	8939,	8567,	8556,	8402,	8350,	8329,	8894,	8719,	8363,	9158,	14.61,	14.43,	13.39,	1.73,	0.46,	2.06,	2.30,	12.43,	12.21,	12.27,	14.76,	13.79,	14.65,	13.59,	1697,	1693
11,	8154,	7783,	8020,	8413,	8931,	8549,	8539,	8406,	8351,	8321,	8902,	8727,	8379,	9179,	14.61,	14.43,	13.39,	1.73,	0.46,	2.06,	2.30,	12.43,	12.21,	12.27,	14.76,	13.79,	14.65,	13.59,	1697,	1692
12,	8162,	7788,	8015,	8412,	8947,	8557,	8549,	8409,	8368,	8324,	8903,	8725,	8381,	9175,	14.61,	14.43,	13.39,	1.73,	0.46,	2.06,	2.30,	12.43,	12.21,	12.27,	14.76,	13.79,	14.65,	13.59,	1697,	1691
13,	8155,	7782,	8014,	8405,	8947,	8564,	8553,	8400,	8370,	8329,	8906,	8721,	8376,	9170,	14.61,	14.43,	13.39,	1.73,	0.46,	2.06,	2.30,	12.43,	12.21,	12.27,	14.76,	13.79,	14.65,	13.59,	1699,	1693
14,	8154,	7781,	8025,	8411,	8950,	8563,	8552,	8408,	8373,	8327,	8915,	8734,	8392,	9192,	14.61,	14.43,	13.39,	1.73,	0.46,	2.06,	2.30,	12.43,	12.21,	12.27,	14.76,	13.79,	14.65,	13.59,	1699,	1693
15,	8166,	7796,	8040,	8422,	8973,	8573,	8569,	8428,	8398,	8339,	8921,	8758,	8410,	9210,	14.61,	14.43,	13.39,	1.73,	0.46,	2.06,	2.30,	12.43,	12.21,	12.27,	14.76,	13.76,	14.65,	13.59,	1699,	1695
16,	8177,	7808,	8053,	8429,	8964,	8579,	8580,	8442,	8415,	8357,	8923,	8765,	8411,	9195,	14.61,	14.43,	13.39,	1.73,	0.46,	2.06,	2.30,	12.43,	12.21,	12.27,	14.76,	13.76,	14.65,	13.59,	1701,	1695
17,	8175,	7807,	8056,	8441,	8945,	8577,	8573,	8447,	8411,	8350,	8929,	8761,	8410,	9189,	14.61,	14.43,	13.39,	1.73,	0.46,	2.06,	2.30,	12.43,	12.21,	12.27,	14.76,	13.76,	14.65,	13.59,	1701,	1696
18,	8170,	7806,	8064,	8441,	8971,	8579,	8573,	8446,	8416,	8348,	8935,	8766,	8415,	9204,	14.61,	14.43,	13.39,	1.73,	0.46,	2.06,	2.30,	12.43,	12.21,	12.27,	14.76,	13.76,	14.65,	13.59,	1702,	1695
19,	8162,	7804,	8060,	8425,	8985,	8580,	8578,	8439,	8416,	8354,	8921,	8764,	8410,	9188,	14.61,	14.43,	13.39,	1.73,	0.46,	2.06,	2.30,	12.43,	12.21,	12.27,	14.76,	13.76,	14.65,	13.59,	1701,	1695
20,	8161,	7798,	8046,	8419,	8963,	8577,	8571,	8433,	8400,	8344,	8900,	8745,	8385,	9141,	14.61,	14.43,	13.39,	1.73,	0.46,	2.06,	2.30,	12.43,	12.21,	12.27,	14.76,	13.76,	14.65,	13.59,	1702,	1697
21,	8165,	7798,	8060,	8432,	8964,	8576,	8564,	8432,	8395,	8345,	8904,	8739,	8374,	9122,	14.61,	14.43,	13.39,	1.73,	0.46,	2.06,	2.30,	12.43,	12.21,	12.27,	14.76,	13.76,	14.65,	13.59,	1702,	1697
22,	8167,	7809,	8084,	8446,	8978,	8586,	8566,	8424,	8398,	8351,	8915,	8752,	8390,	9131,	14.61,	14.43,	13.39,	1.73,	0.46,	2.06,	2.30,	12.43,	12.21,	12.27,	14.76,	13.76,	14.65,	13.59,	1701,	1701
23,	8164,	7804,	8075,	8435,	8967,	8592,	8563,	8414,	8389,	8338,	8913,	8751,	8396,	9125,	14.61,	14.43,	13.39,	1.73,	0.46,	2.06,	2.30,	12.43,	12.21,	12.27,	14.76,	13.76,	14.65,	13.59,	1701,	1700
24,	8160,	7791,	8057,	8424,	8946,	8580,	8562,	8418,	8389,	8336,	8914,	8747,	8390,	9112,	14.61,	14.43,	13.39,	1.73,	0.46,	2.06,	2.30,	12.43,	12.21,	12.27,	14.76,	13.76,	14.65,	13.59,	1700,	1700
25,	8157,	7786,	8055,	8426,	8933,	8564,	8565,	8415,	8395,	8343,	8908,	8743,	8386,	9103,	14.61,	14.43,	13.39,	1.73,	0.46,	2.06,	2.30,	12.43,	12.21,	12.27,	14.76,	13.76,	14.65,	13.59,	1700,	1699
26,	8152,	7786,	8057,	8420,	8936,	8551,	8550,	8402,	8385,	8318,	8887,	8728,	8377,	9091,	14.61,	14.43,	13.39,	1.73,	0.46,	2.06,	2.30,	12.43,	12.21,	12.27,	14.76,	13.76,	14.65,	13.59,	1699,	1699
27,	8156,	7799,	8064,	8424,	8963,	8557,	8545,	8416,	8390,	8316,	8890,	8732,	8383,	9096,	14.61,	14.43,	13.39,	1.73,	0.46,	2.06,	2.30,	12.43,	12.21,	12.27,	14.76,	13.76,	14.65,	13.59,	1700,	1698
28,	8166,	7808,	8081,	8435,	8977,	8569,	8556,	8433,	8406,	8351,	8908,	8752,	8402,	9107,	14.61,	14.43,	13.39,	1.73,	0.46,	2.06,	2.30,	12.43,	12.21,	12.27,	14.76,	13.76,	14.65,	13.59,	1698,	1699
29,	8163,	7797,	8074,	8419,	8953,	8562,	8545,	8415,	8391,	8343,	8905,	8739,	8391,	9092,	14.61,	14.43,	13.39,	1.73,	0.46,	2.06,	2.30,	12.43,	12.21,	12.27,	14.76,	13.76,	14.65,	13.59,	1699,	1697
30,	8149,	7785,	8051,	8407,	8929,	8548,	8527,	8403,	8368,	8314,	8893,	8717,	8367,	9071,	14.61,	14.43,	13.39,	1.73,	0.46,	2.06,	2.30,	12.43,	12.21,	12.27,	14.76,	13.76,	14.65,	13.59,	1697,	1698
31,	8148,	7790,	8063,	8423,	8943,	8557,	8540,	8411,	8373,	8322,	8886,	8722,	8371,	9072,	14.61,	14.43,	13.39,	1.73,	0.46,	2.06,	2.30,	12.43,	12.21,	12.27,	14.76,	13.76,	14.65,	13.59,	1696,	1701
32,	8156,	7807,	8071,	8439,	8969,	8576,	8553,	8417,	8388,	8340,	8887,	8730,	8382,	9072,	14.61,	14.43,	13.39,	1.73,	0.46,	2.06,	2.30,	12.43,	12.21,	12.27,	14.76,	13.76,	14.65,	13.59,	1695,	1700
33,	8157,	7815,	8065,	8440,	8959,	8566,	8536,	8415,	8381,	8324,	8893,	8727,	8378,	9064,	14.61,	14.43,	13.39,	1.73,	0.46,	2.06,	2.30,	12.43,	12.21,	12.27,	14.76,	13.76,	14.65,	13.59,	1695,	1700
34,	8158,	7808,	8081,	8442,	8939,	8544,	8518,	8407,	8357,	8307,	8901,	8734,	8379,	9071,	14.61,	14.43,	13.39,	1.73,	0.46,	2.06,	2.30,	12.43,	12.21,	12.27,	14.76,	13.76,	14.65,	13.59,	1694,	1699
35,	8155,	7801,	8086,	8439,	8949,	8549,	8537,	8397,	8354,	8314,	8898,	8747,	8385,	9078,	14.61,	14.43,	13.39,	1.73,	0.46,	2.06,	2.30,	12.43,	12.21,	12.27,	14.76,	13.76,	14.65,	13.59,	1693,	1701
36,	8151,	7803,	8081,	8437,	8951,	8559,	8552,	8400,	8372,	8322,	8897,	8746,	8383,	9070,	14.61,	14.43,	13.39,	1.73,	0.46,	2.06,	2.30,	12.43,	12.21,	12.27,	14.76,	13.76,	14.65,	13.59,	1692,	1701
37,	8158,	7814,	8088,	8451,	8957,	8559,	8543,	8423,	8391,	8330,	8905,	8748,	8388,	9065,	14.61,	14.43,	13.39,	1.73,	0.46,	2.06,	2.30,	12.43,	12.21,	12.27,	14.76,	13.76,	14.65,	13.59,	1690,	1702
38,	8163,	7818,	8091,	8455,	8966,	8566,	8544,	8432,	8398,	8339,	8910,	8751,	8398,	9069,	14.61,	14.43,	13.39,	1.73,	0.46,	2.06,	2.30,	12.43,	12.21,	12.27,	14.76,	13.76,	14.65,	13.59,	1690,	1701
