=====================
  Detection Session  
=====================
Name:		Bor3y
Source:		Session_2014_06_23_6128/[T][2014-06-23 15-53-54] Bor3y.csv
Date:		2014-06-23 16:05:08
Trials:		9
PreTime:	3
RecTime:	4
PostTime:	4
Classifier:	LEASTSQUARES_nClasses
AvgDetectTime:	0.14837887552
Triggers:	5427, 6950, 8473, 9995, 11518, 13040, 14563, 16085, 17608
Directions:	1, 1, 1, 2, 2, 3, 3, 1, 3
ClassesTypes:	2, 1, 1, 2, 2, 3, 3, 1, 3
ClassesNames:	RIGHT, LEFT, NEUTRAL

RawData:
Count,	F3,	FC5,	AF3,	F7,	T7,	P7,	O1,	O2,	P8,	T8,	F8,	AF4,	FC6,	F4,	Q_F3,	Q_FC5,	Q_AF3,	Q_F7,	Q_T7,	Q_P7,	Q_O1,	Q_O2,	Q_P8,	Q_T8,	Q_F8,	Q_AF4,	Q_FC6,	Q_F4,	GyroX,	GyroY
62,	8429,	8545,	9013,	7973,	8468,	8119,	8189,	8830,	8370,	8190,	7938,	8361,	8473,	8511,	12.28,	14.76,	14.76,	13.20,	0.00,	0.00,	0.00,	0.00,	0.00,	0.00,	0.00,	0.00,	0.00,	0.00,	1642,	1663
63,	8418,	8540,	8998,	7947,	8472,	8124,	8189,	8806,	8345,	8156,	7931,	8356,	8481,	8521,	12.28,	14.76,	14.76,	13.20,	0.00,	0.00,	0.00,	0.00,	0.00,	0.00,	0.00,	0.00,	0.00,	0.00,	1642,	1662
64,	8419,	8562,	9012,	7954,	8474,	8140,	8197,	8831,	8353,	8204,	7941,	8364,	8474,	8502,	12.28,	14.76,	14.76,	13.20,	0.00,	0.00,	0.00,	0.00,	0.00,	0.00,	0.00,	0.00,	0.00,	0.00,	1644,	1662
65,	8415,	8513,	8993,	7972,	8460,	8115,	8196,	8827,	8339,	8204,	7919,	8347,	8440,	8521,	12.28,	14.76,	14.76,	13.20,	0.00,	0.00,	0.00,	0.00,	0.00,	0.00,	0.00,	0.00,	0.00,	0.00,	1643,	1660
66,	8422,	8530,	9003,	7973,	8464,	8119,	8192,	8820,	8338,	8178,	7916,	8357,	8450,	8511,	12.28,	14.76,	14.76,	13.20,	6.53,	0.00,	0.00,	0.00,	0.00,	0.00,	0.00,	0.00,	0.00,	0.00,	1644,	1662
67,	8451,	8593,	9034,	7954,	8463,	8146,	8207,	8839,	8348,	8183,	7938,	8385,	8493,	8501,	12.28,	14.76,	14.76,	13.20,	6.53,	0.00,	0.00,	0.00,	0.00,	0.00,	0.00,	0.00,	0.00,	0.00,	1645,	1661
68,	8457,	8546,	9011,	7963,	8449,	8123,	8209,	8841,	8337,	8159,	7924,	8366,	8487,	8505,	12.28,	14.76,	14.76,	13.20,	6.53,	14.73,	13.01,	11.64,	7.45,	10.50,	15.16,	13.82,	9.56,	12.31,	1644,	1664
69,	8450,	8531,	9020,	7990,	8444,	8111,	8198,	8851,	8353,	8130,	7942,	8378,	8497,	8492,	12.28,	14.76,	14.76,	13.20,	6.53,	14.73,	13.01,	11.64,	7.45,	10.50,	15.16,	13.82,	9.56,	12.31,	1647,	1663
70,	8465,	8590,	9038,	7973,	8424,	8139,	8214,	8850,	8354,	8123,	7948,	8396,	8516,	8523,	12.28,	14.76,	14.76,	13.20,	6.53,	14.73,	13.01,	11.64,	7.45,	10.50,	15.11,	13.82,	9.56,	12.31,	1646,	1663
71,	8453,	8577,	9013,	7951,	8418,	8151,	8214,	8832,	8336,	8132,	7906,	8371,	8477,	8509,	12.28,	14.76,	14.76,	13.20,	6.53,	14.73,	13.01,	11.64,	7.45,	10.50,	15.11,	13.82,	9.56,	12.31,	1647,	1663
72,	8424,	8522,	9002,	7969,	8428,	8136,	8191,	8821,	8336,	8130,	7884,	8351,	8446,	8486,	12.28,	14.76,	14.76,	13.20,	6.53,	14.73,	13.01,	11.64,	7.45,	10.50,	15.11,	13.82,	9.56,	12.31,	1647,	1663
73,	8434,	8520,	9003,	7967,	8430,	8140,	8193,	8815,	8341,	8100,	7890,	8349,	8476,	8516,	12.28,	14.76,	14.76,	13.20,	6.53,	14.73,	13.01,	11.64,	7.45,	10.50,	15.11,	13.82,	9.56,	12.31,	1648,	1662
74,	8453,	8577,	9017,	7950,	8446,	8166,	8205,	8837,	8361,	8118,	7915,	8371,	8522,	8510,	12.28,	14.76,	14.76,	13.20,	6.53,	14.73,	13.01,	11.64,	7.45,	10.50,	15.11,	13.82,	9.56,	12.31,	1649,	1662
75,	8460,	8588,	9012,	7949,	8461,	8155,	8211,	8840,	8360,	8164,	7915,	8366,	8493,	8519,	12.28,	14.76,	14.76,	13.20,	6.53,	14.73,	13.01,	11.64,	7.45,	10.50,	15.11,	13.82,	9.56,	12.31,	1650,	1663
76,	8450,	8545,	8991,	7959,	8454,	8132,	8197,	8813,	8340,	8174,	7899,	8337,	8453,	8523,	12.28,	14.76,	14.76,	13.20,	6.53,	14.73,	13.01,	11.64,	7.45,	10.50,	15.11,	13.82,	9.56,	12.31,	1649,	1665
77,	8441,	8541,	9000,	7958,	8458,	8152,	8188,	8817,	8344,	8153,	7913,	8347,	8484,	8512,	12.28,	14.76,	14.76,	13.20,	6.53,	14.73,	13.01,	11.64,	7.45,	10.50,	15.11,	13.82,	9.56,	12.31,	1650,	1665
78,	8456,	8542,	9007,	7949,	8487,	8175,	8211,	8825,	8344,	8123,	7924,	8355,	8492,	8545,	12.28,	14.76,	14.76,	13.20,	6.53,	14.73,	13.01,	11.64,	7.45,	10.50,	15.11,	13.82,	9.56,	12.31,	1649,	1665
79,	8472,	8554,	9022,	7972,	8514,	8182,	8221,	8836,	8350,	8145,	7944,	8365,	8486,	8536,	12.28,	14.76,	14.76,	13.20,	6.53,	14.73,	13.01,	11.64,	7.45,	10.50,	15.11,	13.82,	9.56,	12.31,	1649,	1664
80,	8487,	8575,	9043,	7996,	8520,	8207,	8229,	8855,	8361,	8179,	7963,	8383,	8500,	8537,	12.28,	14.76,	14.76,	13.20,	6.53,	14.73,	13.01,	11.64,	7.45,	10.50,	15.11,	13.82,	9.56,	12.31,	1648,	1664
81,	8503,	8579,	9043,	7992,	8489,	8216,	8243,	8856,	8364,	8171,	7961,	8378,	8491,	8556,	12.28,	14.76,	14.76,	13.20,	6.53,	14.73,	13.01,	11.64,	7.45,	10.50,	15.11,	13.82,	9.56,	12.31,	1647,	1664
82,	8493,	8611,	9044,	8006,	8468,	8193,	8228,	8846,	8361,	8156,	7963,	8370,	8485,	8531,	12.28,	14.76,	14.76,	13.20,	6.53,	14.73,	13.01,	11.64,	7.45,	10.50,	15.11,	13.82,	9.56,	12.28,	1645,	1664
83,	8491,	8624,	9041,	8018,	8479,	8193,	8225,	8833,	8342,	8142,	7956,	8360,	8494,	8555,	12.28,	14.76,	14.76,	13.20,	6.53,	14.73,	13.01,	11.64,	7.45,	10.50,	15.11,	13.82,	9.56,	12.28,	1645,	1667
84,	8510,	8578,	9049,	8013,	8507,	8239,	8241,	8852,	8377,	8174,	7979,	8378,	8509,	8572,	12.28,	14.76,	14.76,	13.20,	6.53,	14.73,	13.01,	11.64,	7.45,	10.50,	15.11,	13.82,	9.56,	12.28,	1643,	1668
85,	8524,	8564,	9059,	8017,	8511,	8260,	8253,	8885,	8418,	8207,	8000,	8400,	8524,	8557,	12.28,	14.76,	14.76,	13.20,	6.53,	14.73,	13.01,	11.64,	7.45,	10.50,	15.11,	13.82,	9.56,	12.28,	1642,	1671
86,	8522,	8632,	9043,	8013,	8482,	8226,	8251,	8875,	8380,	8178,	7970,	8374,	8514,	8564,	12.28,	14.76,	14.76,	13.20,	6.53,	14.73,	13.01,	11.64,	7.45,	10.50,	15.16,	13.82,	9.56,	12.28,	1642,	1671
87,	8516,	8661,	9046,	8010,	8480,	8216,	8236,	8866,	8371,	8184,	7982,	8375,	8520,	8563,	12.28,	14.76,	14.76,	13.20,	6.53,	14.73,	13.01,	11.64,	7.45,	10.50,	15.16,	13.81,	9.56,	12.28,	1640,	1674
88,	8519,	8575,	9050,	8025,	8507,	8230,	8237,	8861,	8391,	8202,	7999,	8388,	8527,	8591,	12.28,	14.76,	14.76,	13.20,	6.53,	14.73,	13.01,	11.64,	7.45,	10.50,	15.16,	13.81,	9.56,	12.28,	1641,	1674
89,	8526,	8568,	9056,	8017,	8502,	8232,	8232,	8856,	8383,	8174,	7982,	8385,	8521,	8595,	12.28,	14.76,	14.76,	13.20,	6.53,	14.73,	13.01,	11.64,	7.45,	10.50,	15.16,	13.81,	9.56,	12.27,	1639,	1673
90,	8528,	8639,	9066,	8011,	8440,	8231,	8212,	8857,	8364,	8172,	7989,	8393,	8525,	8571,	12.28,	14.76,	14.76,	13.20,	6.53,	14.73,	13.01,	11.64,	7.45,	10.50,	15.11,	13.81,	9.56,	12.27,	1640,	1673
91,	8520,	8581,	9040,	8046,	8420,	8236,	8217,	8848,	8358,	8202,	7992,	8384,	8523,	8590,	12.28,	14.76,	14.76,	13.20,	6.53,	14.73,	13.01,	11.64,	7.45,	10.50,	15.11,	13.82,	9.56,	12.27,	1640,	1673
92,	8521,	8568,	9054,	8075,	8486,	8274,	8237,	8873,	8383,	8216,	8005,	8396,	8536,	8585,	12.28,	14.76,	14.76,	13.20,	6.53,	14.73,	13.01,	11.64,	7.45,	10.50,	15.11,	13.82,	9.56,	12.27,	1641,	1673
93,	8546,	8655,	9085,	8045,	8507,	8292,	8252,	8893,	8384,	8194,	8008,	8408,	8539,	8592,	12.28,	14.76,	14.76,	13.20,	6.53,	14.73,	13.01,	11.64,	7.45,	10.50,	15.11,	13.82,	9.56,	12.27,	1640,	1674
94,	8546,	8604,	9059,	8038,	8463,	8271,	8251,	8875,	8374,	8183,	7992,	8389,	8518,	8601,	12.28,	14.76,	14.76,	13.20,	6.53,	14.73,	13.01,	11.64,	7.45,	10.50,	15.16,	13.82,	9.56,	12.27,	1642,	1673
95,	8514,	8550,	9043,	8078,	8426,	8262,	8230,	8861,	8369,	8169,	7991,	8385,	8514,	8575,	12.28,	14.76,	14.76,	13.20,	6.53,	14.73,	13.01,	11.64,	7.45,	10.50,	15.16,	13.84,	9.56,	12.27,	1642,	1673
96,	8500,	8617,	9038,	8061,	8389,	8245,	8210,	8833,	8317,	8124,	7966,	8365,	8495,	8589,	12.28,	14.76,	14.76,	13.20,	6.53,	14.73,	13.01,	11.64,	7.45,	10.50,	15.16,	13.84,	9.57,	12.27,	1643,	1673
97,	8497,	8623,	9036,	8037,	8373,	8234,	8204,	8826,	8313,	8152,	7951,	8353,	8468,	8579,	12.28,	14.76,	14.76,	13.20,	6.53,	14.73,	13.01,	11.64,	7.45,	10.50,	15.16,	13.84,	9.57,	12.27,	1643,	1671
98,	8505,	8569,	9047,	8050,	8406,	8267,	8227,	8846,	8353,	8193,	7969,	8368,	8467,	8568,	12.28,	14.76,	14.76,	13.20,	6.53,	14.73,	13.01,	11.64,	7.45,	10.50,	15.16,	13.84,	9.57,	12.27,	1642,	1672
99,	8520,	8580,	9045,	8041,	8397,	8291,	8238,	8836,	8337,	8144,	7960,	8365,	8474,	8589,	12.28,	14.76,	14.76,	13.20,	6.53,	14.73,	13.01,	11.64,	7.45,	10.50,	15.16,	13.84,	9.57,	12.27,	1643,	1671
100,	8522,	8593,	9049,	8053,	8336,	8295,	8229,	8844,	8339,	8131,	7948,	8362,	8483,	8573,	12.28,	14.76,	14.76,	13.20,	6.53,	14.73,	13.01,	11.64,	7.45,	10.50,	15.16,	13.84,	9.56,	12.27,	1640,	1673
101,	8538,	8572,	9054,	8087,	8281,	8295,	8241,	8862,	8351,	8160,	7960,	8371,	8485,	8587,	12.28,	14.76,	14.76,	13.20,	6.53,	14.73,	13.01,	11.64,	7.45,	10.50,	15.16,	13.84,	9.56,	12.28,	1641,	1672
102,	8558,	8613,	9071,	8086,	8235,	8305,	8245,	8859,	8348,	8177,	8013,	8402,	8516,	8593,	12.28,	14.76,	14.76,	13.20,	6.53,	14.73,	13.01,	11.64,	7.45,	10.50,	15.13,	13.84,	9.56,	12.28,	1639,	1672
103,	8560,	8637,	9094,	8089,	8204,	8324,	8238,	8860,	8360,	8196,	8070,	8432,	8549,	8577,	12.28,	14.76,	14.76,	13.20,	6.53,	14.73,	13.01,	11.64,	7.45,	10.50,	15.13,	13.84,	9.56,	12.28,	1638,	1673
104,	8557,	8592,	9073,	8085,	8200,	8320,	8242,	8842,	8340,	8175,	8071,	8424,	8534,	8590,	12.28,	14.76,	14.76,	13.20,	6.53,	14.73,	13.01,	11.64,	7.45,	10.50,	15.13,	13.84,	9.57,	12.28,	1637,	1674
105,	8542,	8597,	9053,	8044,	8215,	8315,	8229,	8832,	8327,	8172,	8082,	8432,	8544,	8576,	12.28,	14.76,	14.76,	13.20,	6.53,	14.73,	13.01,	11.64,	7.45,	10.50,	15.13,	13.84,	9.57,	12.28,	1637,	1673
106,	8527,	8597,	9042,	8033,	8192,	8333,	8221,	8831,	8343,	8193,	8091,	8436,	8553,	8577,	12.28,	14.76,	14.76,	13.20,	6.53,	14.73,	13.01,	11.64,	7.45,	10.50,	15.13,	13.84,	9.57,	12.28,	1636,	1672
107,	8527,	8563,	9035,	8070,	8164,	8340,	8223,	8829,	8357,	8189,	8076,	8423,	8528,	8583,	12.28,	14.76,	14.76,	13.20,	6.53,	14.73,	13.01,	11.64,	7.45,	10.50,	15.13,	13.85,	9.57,	12.28,	1635,	1672
108,	8539,	8577,	9057,	8096,	8208,	8340,	8216,	8844,	8369,	8185,	8095,	8437,	8550,	8578,	12.28,	14.76,	14.76,	13.20,	6.53,	14.73,	13.01,	11.64,	7.45,	10.50,	15.13,	13.85,	9.54,	12.28,	1634,	1669
109,	8551,	8599,	9049,	8078,	8238,	8336,	8213,	8840,	8363,	8156,	8094,	8430,	8581,	8604,	12.28,	14.76,	14.76,	13.20,	6.53,	14.73,	13.01,	11.64,	7.45,	10.50,	15.13,	13.85,	9.54,	12.28,	1632,	1671
110,	8544,	8589,	9037,	8058,	8201,	8322,	8202,	8835,	8371,	8150,	8077,	8424,	8564,	8590,	12.28,	14.76,	14.76,	13.20,	6.53,	14.73,	13.01,	11.64,	7.45,	10.50,	15.14,	13.85,	9.54,	12.28,	1632,	1670
111,	8546,	8566,	9042,	8067,	8176,	8306,	8205,	8839,	8369,	8180,	8068,	8433,	8532,	8584,	12.28,	14.76,	14.76,	13.20,	6.53,	14.73,	13.01,	11.64,	7.45,	10.50,	15.14,	13.82,	9.54,	12.28,	1631,	1670
112,	8564,	8559,	9040,	8095,	8210,	8310,	8222,	8839,	8345,	8156,	8064,	8428,	8540,	8602,	12.28,	14.76,	14.76,	13.20,	6.53,	14.73,	13.01,	11.64,	7.45,	10.50,	15.14,	13.82,	9.57,	12.28,	1630,	1670
113,	8573,	8583,	9065,	8130,	8249,	8335,	8232,	8864,	8363,	8133,	8084,	8449,	8570,	8586,	12.28,	14.76,	14.76,	13.20,	6.53,	14.73,	13.01,	11.64,	7.45,	10.50,	15.14,	13.82,	9.57,	12.27,	1629,	1669
114,	8593,	8600,	9096,	8149,	8245,	8355,	8266,	8894,	8392,	8176,	8094,	8468,	8566,	8604,	12.28,	14.76,	14.76,	13.20,	6.53,	14.73,	13.01,	11.64,	7.45,	10.50,	15.14,	13.82,	9.57,	12.27,	1629,	1669
115,	8620,	8633,	9114,	8166,	8241,	8388,	8297,	8925,	8412,	8242,	8116,	8484,	8577,	8608,	12.28,	14.76,	14.76,	13.20,	6.53,	14.73,	13.01,	11.64,	7.45,	10.50,	15.14,	13.82,	9.57,	12.27,	1629,	1668
116,	8617,	8656,	9108,	8172,	8257,	8414,	8297,	8938,	8418,	8244,	8137,	8496,	8596,	8597,	12.28,	14.76,	14.76,	13.20,	6.53,	14.73,	13.01,	11.64,	7.45,	10.50,	15.14,	13.82,	9.56,	12.27,	1628,	1667
117,	8588,	8610,	9076,	8150,	8240,	8383,	8272,	8904,	8400,	8204,	8110,	8470,	8569,	8605,	12.28,	14.76,	14.76,	13.20,	6.53,	14.73,	13.01,	11.64,	7.45,	10.50,	15.14,	13.82,	9.56,	12.27,	1628,	1667
118,	8556,	8577,	9069,	8133,	8196,	8343,	8227,	8877,	8392,	8202,	8101,	8458,	8562,	8583,	12.28,	14.76,	14.76,	13.20,	6.53,	14.73,	13.01,	11.64,	7.45,	10.50,	15.16,	13.82,	9.56,	12.27,	1627,	1666
119,	8562,	8580,	9068,	8144,	8195,	8355,	8235,	8877,	8369,	8197,	8104,	8461,	8568,	8599,	12.28,	14.76,	14.76,	13.20,	6.53,	14.73,	13.01,	11.64,	7.45,	10.50,	15.16,	13.85,	9.56,	12.27,	1627,	1664
120,	8605,	8623,	9091,	8147,	8229,	8385,	8266,	8885,	8363,	8179,	8113,	8476,	8570,	8620,	12.28,	14.76,	14.76,	13.20,	6.53,	14.73,	13.01,	11.64,	7.45,	10.50,	15.16,	13.85,	9.57,	12.27,	1625,	1664
121,	8625,	8659,	9134,	8142,	8236,	8394,	8265,	8900,	8399,	8188,	8147,	8511,	8594,	8609,	12.28,	14.76,	14.76,	13.20,	6.53,	14.73,	13.01,	11.64,	7.45,	10.50,	15.14,	13.85,	9.57,	12.28,	1626,	1664
122,	8616,	8610,	9127,	8166,	8223,	8399,	8270,	8910,	8416,	8202,	8148,	8508,	8590,	8622,	12.28,	14.76,	14.76,	13.20,	6.53,	14.73,	13.01,	11.64,	7.45,	10.50,	15.14,	13.85,	9.57,	12.28,	1623,	1662
123,	8619,	8600,	9128,	8198,	8230,	8420,	8279,	8921,	8415,	8234,	8143,	8513,	8571,	8612,	12.28,	14.76,	14.76,	13.20,	6.53,	14.73,	13.01,	11.64,	7.45,	10.50,	15.14,	13.85,	9.57,	12.28,	1624,	1664
124,	8640,	8659,	9155,	8200,	8234,	8426,	8274,	8912,	8399,	8240,	8146,	8529,	8564,	8620,	12.28,	14.76,	14.76,	13.20,	6.53,	14.73,	13.01,	11.64,	7.45,	10.50,	15.14,	13.85,	9.57,	12.28,	1622,	1663
125,	8655,	8682,	9160,	8200,	8218,	8421,	8267,	8905,	8398,	8222,	8144,	8524,	8571,	8634,	12.28,	14.76,	14.76,	13.20,	6.53,	14.73,	13.01,	11.64,	7.45,	10.50,	15.14,	13.85,	9.57,	12.31,	1621,	1664
126,	8652,	8660,	9159,	8215,	8214,	8435,	8271,	8943,	8432,	8231,	8172,	8543,	8612,	8622,	12.28,	14.76,	14.76,	13.20,	6.53,	14.73,	13.01,	11.64,	7.45,	10.50,	15.16,	13.85,	9.57,	12.31,	1621,	1662
127,	8647,	8629,	9145,	8199,	8204,	8437,	8281,	8941,	8430,	8228,	8181,	8540,	8608,	8639,	12.28,	14.76,	14.76,	13.20,	6.53,	14.73,	13.01,	11.64,	7.45,	10.50,	15.16,	13.82,	9.57,	12.31,	1620,	1664
0,	8641,	8655,	9147,	8199,	8201,	8474,	8276,	8943,	8425,	8300,	8209,	8543,	8618,	8626,	12.27,	14.76,	14.76,	13.20,	6.53,	14.73,	13.01,	11.64,	7.45,	10.50,	15.16,	13.82,	9.57,	12.31,	1620,	1663
1,	8628,	8617,	9109,	8181,	8186,	8461,	8279,	8938,	8421,	8265,	8205,	8540,	8627,	8637,	12.27,	14.92,	14.76,	13.20,	6.53,	14.73,	13.01,	11.64,	7.45,	10.50,	15.16,	13.82,	9.57,	12.31,	1622,	1661
2,	8603,	8579,	9094,	8167,	8183,	8426,	8261,	8919,	8421,	8234,	8181,	8529,	8602,	8611,	12.27,	14.92,	14.77,	13.20,	6.53,	14.73,	13.01,	11.64,	7.45,	10.50,	15.16,	13.82,	9.57,	12.31,	1624,	1657
3,	8609,	8597,	9101,	8179,	8211,	8424,	8269,	8923,	8401,	8247,	8161,	8531,	8585,	8630,	12.27,	14.92,	14.77,	13.05,	6.53,	14.73,	13.01,	11.64,	7.45,	10.50,	15.16,	13.82,	9.57,	12.31,	1625,	1655
4,	8628,	8637,	9112,	8185,	8209,	8437,	8274,	8930,	8398,	8270,	8181,	8548,	8601,	8638,	12.27,	14.92,	14.77,	13.05,	6.55,	14.73,	13.01,	11.64,	7.45,	10.50,	15.16,	13.82,	9.57,	12.31,	1627,	1656
5,	8613,	8623,	9110,	8157,	8161,	8409,	8247,	8915,	8408,	8263,	8192,	8553,	8609,	8620,	12.27,	14.92,	14.77,	13.05,	6.55,	14.80,	13.01,	11.64,	7.45,	10.50,	15.16,	13.82,	9.57,	12.31,	1629,	1655
6,	8589,	8562,	9078,	8151,	8152,	8381,	8247,	8895,	8387,	8212,	8146,	8526,	8578,	8632,	12.27,	14.92,	14.77,	13.05,	6.55,	14.80,	13.02,	11.64,	7.45,	10.50,	15.16,	13.82,	9.57,	12.31,	1631,	1656
7,	8608,	8592,	9101,	8199,	8194,	8424,	8279,	8935,	8406,	8243,	8166,	8555,	8584,	8633,	12.27,	14.92,	14.77,	13.05,	6.55,	14.80,	13.02,	11.66,	7.45,	10.50,	15.16,	13.82,	9.57,	12.31,	1634,	1655
8,	8639,	8655,	9137,	8198,	8191,	8447,	8301,	8968,	8422,	8309,	8212,	8592,	8603,	8655,	12.27,	14.92,	14.77,	13.05,	6.55,	14.80,	13.02,	11.66,	7.54,	10.50,	15.16,	13.82,	9.57,	12.31,	1636,	1654
9,	8614,	8615,	9102,	8147,	8150,	8408,	8278,	8940,	8400,	8266,	8179,	8557,	8577,	8644,	12.27,	14.92,	14.77,	13.05,	6.55,	14.80,	13.02,	11.66,	7.54,	10.52,	15.16,	13.82,	9.57,	12.31,	1639,	1653
10,	8578,	8570,	9072,	8142,	8141,	8398,	8257,	8937,	8416,	8226,	8150,	8532,	8559,	8606,	12.27,	14.92,	14.77,	13.05,	6.55,	14.80,	13.02,	11.66,	7.54,	10.52,	15.13,	13.82,	9.57,	12.31,	1640,	1654
11,	8597,	8578,	9072,	8168,	8140,	8415,	8287,	8958,	8434,	8261,	8150,	8532,	8545,	8641,	12.27,	14.92,	14.77,	13.05,	6.55,	14.80,	13.02,	11.66,	7.54,	10.52,	15.13,	13.85,	9.57,	12.31,	1645,	1653
12,	8611,	8622,	9081,	8146,	8148,	8414,	8289,	8958,	8431,	8278,	8156,	8535,	8545,	8640,	12.27,	14.92,	14.77,	13.05,	6.55,	14.80,	13.02,	11.66,	7.54,	10.52,	15.13,	13.85,	9.56,	12.31,	1644,	1653
13,	8596,	8628,	9082,	8120,	8175,	8421,	8275,	8934,	8414,	8235,	8163,	8537,	8578,	8630,	12.27,	14.92,	14.77,	13.05,	6.55,	14.80,	13.02,	11.66,	7.54,	10.52,	15.13,	13.85,	9.56,	12.13,	1646,	1654
14,	8604,	8591,	9086,	8166,	8166,	8438,	8285,	8915,	8385,	8221,	8173,	8543,	8590,	8654,	12.27,	14.92,	14.77,	13.05,	6.55,	14.80,	13.02,	11.66,	7.54,	10.52,	15.13,	13.85,	9.56,	12.13,	1647,	1653
15,	8607,	8602,	9103,	8215,	8139,	8428,	8266,	8915,	8399,	8284,	8190,	8556,	8567,	8633,	12.27,	14.92,	14.77,	13.05,	6.55,	14.80,	13.02,	11.66,	7.54,	10.52,	15.13,	13.84,	9.56,	12.13,	1647,	1653
16,	8592,	8607,	9086,	8193,	8145,	8410,	8257,	8907,	8421,	8318,	8184,	8533,	8546,	8642,	12.27,	14.92,	14.77,	13.05,	6.55,	14.80,	13.02,	11.66,	7.54,	10.52,	15.13,	13.84,	9.56,	12.13,	1647,	1652
17,	8580,	8603,	9074,	8155,	8144,	8413,	8261,	8911,	8414,	8287,	8194,	8523,	8580,	8646,	12.27,	14.92,	14.77,	13.05,	6.55,	14.80,	13.02,	11.66,	7.54,	10.52,	15.13,	13.84,	9.56,	12.13,	1647,	1651
18,	8583,	8621,	9090,	8166,	8120,	8409,	8238,	8916,	8411,	8258,	8216,	8548,	8627,	8642,	12.27,	14.92,	14.77,	13.05,	6.55,	14.80,	13.02,	11.66,	7.54,	10.52,	15.13,	13.84,	9.56,	12.13,	1647,	1651
19,	8590,	8612,	9089,	8182,	8112,	8399,	8235,	8905,	8425,	8264,	8203,	8542,	8609,	8658,	12.27,	14.92,	14.77,	13.05,	6.55,	14.80,	13.02,	11.66,	7.54,	10.52,	15.13,	13.84,	9.56,	12.13,	1647,	1652
20,	8589,	8593,	9097,	8178,	8118,	8422,	8255,	8921,	8438,	8303,	8206,	8540,	8585,	8639,	12.27,	14.92,	14.77,	13.05,	6.55,	14.80,	13.02,	11.66,	7.54,	10.52,	15.13,	13.84,	9.56,	12.13,	1646,	1651
21,	8591,	8582,	9092,	8172,	8118,	8430,	8255,	8914,	8416,	8298,	8201,	8540,	8573,	8646,	12.27,	14.92,	14.77,	13.05,	6.55,	14.80,	13.02,	11.66,	7.54,	10.52,	15.13,	13.84,	9.56,	12.13,	1644,	1652
22,	8593,	8614,	9084,	8185,	8133,	8409,	8232,	8888,	8406,	8278,	8185,	8536,	8569,	8654,	12.27,	14.92,	14.77,	13.05,	6.55,	14.80,	13.02,	11.66,	7.54,	10.52,	15.13,	13.84,	9.56,	12.13,	1646,	1651
23,	8604,	8660,	9112,	8207,	8137,	8425,	8237,	8907,	8418,	8300,	8207,	8557,	8599,	8646,	12.27,	14.92,	14.77,	13.05,	6.55,	14.80,	13.02,	11.66,	7.54,	10.52,	15.13,	13.84,	9.56,	12.13,	1643,	1651
24,	8619,	8608,	9112,	8184,	8110,	8450,	8259,	8913,	8389,	8285,	8211,	8555,	8606,	8673,	12.27,	14.92,	14.77,	13.05,	6.55,	14.80,	13.02,	11.66,	7.54,	10.52,	15.13,	13.84,	9.56,	12.13,	1643,	1651
25,	8614,	8549,	9103,	8183,	8105,	8432,	8238,	8894,	8378,	8271,	8207,	8554,	8590,	8657,	12.27,	14.92,	14.77,	13.05,	6.55,	14.80,	13.02,	11.66,	7.54,	10.52,	15.13,	13.84,	9.56,	12.13,	1642,	1649
26,	8605,	8600,	9106,	8211,	8105,	8397,	8216,	8879,	8384,	8288,	8209,	8559,	8579,	8648,	12.27,	14.92,	14.77,	13.05,	6.55,	14.80,	13.02,	11.66,	7.54,	10.52,	15.13,	13.84,	9.56,	12.13,	1640,	1651
27,	8598,	8658,	9096,	8194,	8080,	8399,	8223,	8871,	8382,	8296,	8205,	8540,	8570,	8657,	12.27,	14.92,	14.77,	13.05,	6.55,	14.80,	13.02,	11.66,	7.54,	10.52,	15.13,	13.84,	9.56,	12.13,	1640,	1651
28,	8593,	8627,	9105,	8198,	8096,	8435,	8236,	8895,	8405,	8318,	8229,	8546,	8585,	8641,	12.27,	14.92,	14.77,	13.05,	6.55,	14.80,	13.02,	11.66,	7.54,	10.52,	15.13,	13.84,	9.56,	12.13,	1638,	1653
29,	8600,	8566,	9108,	8235,	8136,	8455,	8256,	8902,	8400,	8312,	8229,	8544,	8586,	8660,	12.27,	14.92,	14.77,	13.05,	6.55,	14.80,	13.02,	11.66,	7.54,	10.52,	15.13,	13.84,	9.56,	12.13,	1638,	1654
30,	8607,	8613,	9112,	8234,	8116,	8462,	8259,	8899,	8387,	8289,	8216,	8533,	8567,	8649,	12.27,	14.92,	14.77,	13.05,	6.55,	14.80,	13.02,	11.66,	7.54,	10.52,	15.13,	13.84,	9.56,	12.13,	1638,	1654
31,	8598,	8688,	9108,	8199,	8064,	8442,	8236,	8895,	8379,	8284,	8212,	8525,	8552,	8630,	12.27,	14.92,	14.77,	13.05,	6.55,	14.80,	13.02,	11.66,	7.54,	10.52,	15.13,	13.84,	9.56,	12.13,	1637,	1653
32,	8582,	8630,	9079,	8190,	8073,	8405,	8220,	8869,	8364,	8267,	8185,	8504,	8531,	8644,	12.27,	14.92,	14.77,	13.05,	6.55,	14.80,	13.02,	11.66,	7.54,	10.52,	15.13,	13.84,	9.56,	12.13,	1636,	1654
33,	8580,	8575,	9092,	8208,	8132,	8437,	8235,	8877,	8387,	8269,	8189,	8516,	8530,	8629,	12.27,	14.92,	14.77,	13.05,	6.55,	14.80,	13.02,	11.66,	7.54,	10.52,	15.13,	13.84,	9.56,	12.13,	1637,	1652
34,	8594,	8621,	9108,	8193,	8111,	8467,	8250,	8891,	8399,	8282,	8199,	8522,	8529,	8639,	12.27,	14.92,	14.77,	13.05,	6.55,	14.80,	13.02,	11.66,	7.54,	10.52,	15.13,	13.84,	9.56,	12.13,	1636,	1651
35,	8597,	8653,	9105,	8172,	8054,	8427,	8231,	8886,	8386,	8277,	8194,	8513,	8532,	8638,	12.27,	14.92,	14.77,	13.05,	6.55,	14.80,	13.02,	11.66,	7.54,	10.52,	15.13,	13.84,	9.56,	12.13,	1636,	1652
36,	8588,	8618,	9118,	8181,	8073,	8427,	8231,	8898,	8378,	8264,	8202,	8526,	8550,	8623,	12.27,	14.92,	14.77,	13.05,	6.55,	14.80,	13.02,	11.66,	7.54,	10.52,	15.13,	13.84,	9.56,	12.13,	1637,	1651
37,	8589,	8586,	9113,	8184,	8093,	8481,	8262,	8899,	8372,	8261,	8191,	8523,	8530,	8644,	12.27,	14.92,	14.77,	13.05,	6.55,	14.80,	13.02,	11.66,	7.54,	10.52,	15.13,	13.84,	9.56,	12.13,	1637,	1653
38,	8590,	8641,	9115,	8179,	8064,	8498,	8260,	8898,	8394,	8289,	8196,	8527,	8519,	8626,	12.27,	14.92,	14.77,	13.05,	6.55,	14.80,	13.02,	11.66,	7.54,	10.52,	15.13,	13.84,	9.56,	12.13,	1638,	1652
39,	8576,	8680,	9101,	8162,	8045,	8449,	8237,	8877,	8379,	8284,	8180,	8507,	8517,	8621,	12.27,	14.92,	14.77,	13.05,	6.55,	14.80,	13.02,	11.66,	7.54,	10.52,	15.13,	13.84,	9.56,	12.13,	1637,	1653
40,	8542,	8612,	9063,	8135,	8056,	8413,	8228,	8846,	8348,	8249,	8129,	8454,	8488,	8621,	12.27,	14.92,	14.77,	13.05,	6.55,	14.80,	13.02,	11.66,	7.54,	10.52,	15.13,	13.84,	9.56,	12.13,	1639,	1651
41,	8520,	8547,	9061,	8141,	8053,	8430,	8222,	8853,	8376,	8251,	8132,	8452,	8485,	8594,	12.27,	14.92,	14.77,	13.05,	6.55,	14.80,	13.02,	11.66,	7.54,	10.52,	15.13,	13.84,	9.56,	12.13,	1638,	1650
42,	8529,	8558,	9058,	8147,	8008,	8425,	8222,	8852,	8360,	8245,	8140,	8455,	8498,	8616,	12.27,	14.92,	14.77,	13.05,	6.55,	14.80,	13.02,	11.66,	7.54,	10.52,	15.13,	13.84,	9.56,	12.13,	1640,	1649
43,	8529,	8613,	9044,	8111,	7992,	8405,	8219,	8848,	8322,	8238,	8116,	8437,	8496,	8611,	12.27,	14.92,	14.77,	13.05,	6.55,	14.80,	13.02,	11.66,	7.54,	10.52,	15.13,	13.84,	9.56,	12.13,	1640,	1649
44,	8515,	8602,	9033,	8108,	8008,	8407,	8215,	8842,	8338,	8242,	8086,	8423,	8460,	8598,	12.27,	14.92,	14.77,	13.05,	6.55,	14.80,	13.02,	11.66,	7.54,	10.52,	15.13,	13.84,	9.56,	12.13,	1641,	1648
45,	8508,	8537,	9032,	8155,	8007,	8419,	8214,	8820,	8364,	8232,	8066,	8413,	8425,	8609,	12.27,	14.92,	14.77,	13.05,	6.55,	14.80,	13.02,	11.66,	7.54,	10.52,	15.13,	13.84,	9.56,	12.13,	1640,	1648
46,	8516,	8563,	9081,	8181,	8016,	8445,	8225,	8839,	8379,	8248,	8087,	8439,	8450,	8594,	12.27,	14.92,	14.77,	13.05,	6.55,	14.80,	13.02,	11.66,	7.54,	10.52,	15.13,	13.84,	9.56,	12.13,	1639,	1649
47,	8541,	8637,	9118,	8183,	8022,	8440,	8253,	8860,	8356,	8257,	8083,	8448,	8456,	8615,	12.27,	14.92,	14.77,	13.05,	6.55,	14.80,	13.02,	11.66,	7.54,	10.52,	15.13,	13.84,	9.56,	12.13,	1639,	1646
48,	8545,	8655,	9116,	8190,	7981,	8401,	8236,	8834,	8316,	8222,	8046,	8428,	8432,	8611,	12.27,	14.92,	14.77,	13.05,	6.55,	14.80,	13.02,	11.66,	7.54,	10.52,	15.13,	13.84,	9.56,	12.13,	1637,	1646
49,	8526,	8615,	9104,	8172,	7944,	8390,	8202,	8817,	8296,	8186,	8028,	8422,	8420,	8585,	12.27,	14.92,	14.77,	13.05,	6.55,	14.80,	13.02,	11.66,	7.54,	10.52,	15.13,	13.84,	9.56,	12.13,	1638,	1644
50,	8518,	8559,	9072,	8151,	7972,	8404,	8209,	8814,	8293,	8175,	7998,	8391,	8380,	8601,	12.27,	14.92,	14.77,	13.05,	6.55,	14.80,	13.02,	11.66,	7.54,	10.52,	15.13,	13.84,	9.56,	12.13,	1636,	1644
51,	8504,	8562,	9064,	8179,	8019,	8411,	8197,	8807,	8310,	8189,	7981,	8364,	8352,	8579,	12.27,	14.92,	14.77,	13.05,	6.55,	14.80,	13.02,	11.66,	7.54,	10.52,	15.13,	13.84,	9.56,	12.13,	1636,	1645
52,	8494,	8590,	9059,	8158,	7989,	8388,	8185,	8783,	8294,	8161,	7978,	8357,	8364,	8573,	12.27,	14.92,	14.77,	13.05,	6.55,	14.80,	13.02,	11.66,	7.54,	10.52,	15.13,	13.84,	9.56,	12.13,	1634,	1644
53,	8495,	8585,	9039,	8106,	7963,	8369,	8193,	8772,	8256,	8130,	7964,	8352,	8360,	8576,	12.27,	14.92,	14.77,	13.05,	6.55,	14.80,	13.02,	11.66,	7.54,	10.52,	15.13,	13.84,	9.56,	12.13,	1633,	1645
54,	8492,	8557,	9044,	8136,	8007,	8409,	8199,	8801,	8275,	8177,	7969,	8356,	8345,	8564,	12.27,	14.92,	14.77,	13.05,	6.55,	14.80,	13.02,	11.66,	7.54,	10.52,	15.13,	13.84,	9.56,	12.13,	1632,	1645
55,	8499,	8535,	9040,	8173,	8009,	8442,	8215,	8816,	8317,	8202,	7972,	8349,	8351,	8589,	12.27,	14.92,	14.77,	13.05,	6.55,	14.80,	13.02,	11.66,	7.54,	10.52,	15.13,	13.84,	9.56,	12.13,	1630,	1646
56,	8508,	8579,	9041,	8153,	7952,	8420,	8209,	8819,	8316,	8194,	7987,	8360,	8390,	8580,	12.27,	14.92,	14.77,	13.05,	6.55,	14.80,	13.02,	11.66,	7.54,	10.52,	15.13,	13.84,	9.56,	12.13,	1626,	1645
57,	8504,	8634,	9050,	8146,	7936,	8393,	8199,	8818,	8268,	8194,	7991,	8371,	8394,	8579,	12.27,	14.92,	14.77,	13.05,	6.55,	14.80,	13.02,	11.66,	7.54,	10.52,	15.13,	13.84,	9.56,	12.13,	1622,	1646
58,	8500,	8602,	9047,	8155,	7977,	8397,	8217,	8807,	8270,	8183,	7973,	8359,	8347,	8591,	12.27,	14.92,	14.77,	13.05,	6.55,	14.80,	13.02,	11.66,	7.54,	10.52,	15.13,	13.84,	9.56,	12.13,	1616,	1650
59,	8499,	8564,	9057,	8153,	7996,	8426,	8217,	8811,	8342,	8188,	7991,	8375,	8360,	8572,	12.27,	14.92,	14.77,	13.05,	6.55,	14.80,	13.02,	11.66,	7.54,	10.52,	15.13,	13.84,	9.56,	12.13,	1613,	1654
60,	8496,	8581,	9040,	8146,	7973,	8423,	8196,	8791,	8312,	8193,	7991,	8374,	8390,	8592,	12.27,	14.92,	14.77,	13.05,	6.55,	14.80,	13.02,	11.66,	7.54,	10.52,	15.13,	13.84,	9.56,	12.13,	1609,	1657
61,	8482,	8609,	9018,	8131,	7973,	8395,	8185,	8777,	8261,	8190,	7971,	8351,	8363,	8578,	12.27,	14.92,	14.77,	13.05,	6.55,	14.80,	13.02,	11.66,	7.54,	10.52,	15.13,	13.84,	9.56,	12.13,	1607,	1661
62,	8477,	8584,	9023,	8129,	8021,	8408,	8197,	8791,	8317,	8180,	7968,	8349,	8335,	8556,	12.27,	14.92,	14.77,	13.05,	6.55,	14.80,	13.02,	11.66,	7.54,	10.52,	15.13,	13.84,	9.56,	12.13,	1605,	1661
63,	8491,	8547,	9026,	8146,	8036,	8462,	8225,	8798,	8339,	8178,	7978,	8360,	8362,	8583,	12.27,	14.92,	14.77,	13.05,	6.55,	14.80,	13.02,	11.66,	7.54,	10.52,	15.13,	13.84,	9.56,	12.13,	1605,	1661
64,	8495,	8586,	9052,	8148,	7979,	8465,	8233,	8821,	8316,	8225,	8014,	8391,	8405,	8573,	12.28,	14.92,	14.77,	13.05,	6.55,	14.80,	13.02,	11.66,	7.54,	10.52,	15.13,	13.84,	9.56,	12.13,	1606,	1661
65,	8492,	8599,	9054,	8126,	7940,	8399,	8222,	8832,	8323,	8250,	8017,	8396,	8385,	8581,	12.28,	14.96,	14.77,	13.05,	6.55,	14.80,	13.02,	11.66,	7.54,	10.52,	15.13,	13.84,	9.56,	12.13,	1607,	1661
66,	8499,	8555,	9036,	8125,	7965,	8383,	8214,	8813,	8338,	8252,	8014,	8390,	8373,	8583,	12.28,	14.96,	14.79,	13.05,	6.55,	14.80,	13.02,	11.66,	7.54,	10.52,	15.13,	13.84,	9.56,	12.13,	1610,	1658
67,	8503,	8515,	9052,	8148,	7981,	8435,	8211,	8808,	8336,	8260,	8039,	8413,	8405,	8569,	12.28,	14.96,	14.79,	13.08,	6.55,	14.80,	13.02,	11.66,	7.54,	10.52,	15.13,	13.84,	9.56,	12.13,	1612,	1656
68,	8493,	8450,	9040,	8142,	7963,	8444,	8202,	8790,	8319,	8223,	8010,	8395,	8381,	8587,	12.28,	14.96,	14.79,	13.08,	5.84,	14.80,	13.02,	11.66,	7.54,	10.52,	15.13,	13.84,	9.56,	12.13,	1616,	1652
69,	8494,	8478,	9037,	8147,	7976,	8412,	8180,	8783,	8331,	8219,	7997,	8388,	8362,	8568,	12.28,	14.96,	14.79,	13.08,	5.84,	14.99,	13.02,	11.66,	7.54,	10.52,	15.13,	13.84,	9.56,	12.13,	1617,	1649
70,	8515,	8565,	9076,	8177,	7995,	8404,	8191,	8795,	8324,	8262,	8038,	8418,	8386,	8577,	12.28,	14.96,	14.79,	13.08,	5.84,	14.99,	13.20,	11.66,	7.54,	10.52,	15.13,	13.84,	9.56,	12.13,	1619,	1648
71,	8504,	8533,	9075,	8192,	7970,	8406,	8205,	8785,	8287,	8267,	8045,	8412,	8374,	8583,	12.28,	14.96,	14.79,	13.08,	5.84,	14.99,	13.20,	11.99,	7.54,	10.52,	15.13,	13.84,	9.56,	12.13,	1619,	1645
72,	8469,	8492,	9060,	8200,	7953,	8388,	8187,	8780,	8286,	8260,	8040,	8404,	8364,	8551,	12.28,	14.96,	14.79,	13.08,	5.84,	14.99,	13.20,	11.99,	7.69,	10.52,	15.13,	13.84,	9.56,	12.13,	1620,	1646
73,	8473,	8522,	9066,	8195,	7947,	8380,	8189,	8770,	8287,	8251,	8037,	8403,	8366,	8579,	12.28,	14.96,	14.79,	13.08,	5.84,	14.99,	13.20,	11.99,	7.69,	10.39,	15.13,	13.84,	9.56,	12.13,	1621,	1647
74,	8492,	8559,	9086,	8181,	7928,	8405,	8204,	8771,	8302,	8253,	8038,	8408,	8364,	8579,	12.28,	14.96,	14.79,	13.08,	5.84,	14.99,	13.20,	11.99,	7.69,	10.39,	15.11,	13.84,	9.56,	12.13,	1624,	1647
75,	8483,	8548,	9084,	8189,	7937,	8402,	8202,	8790,	8331,	8266,	8042,	8417,	8372,	8569,	12.28,	14.96,	14.79,	13.08,	5.84,	14.99,	13.20,	11.99,	7.69,	10.39,	15.11,	13.96,	9.56,	12.13,	1628,	1645
76,	8455,	8510,	9045,	8195,	7923,	8341,	8174,	8776,	8329,	8249,	8022,	8386,	8350,	8572,	12.28,	14.96,	14.79,	13.08,	5.84,	14.99,	13.20,	11.99,	7.69,	10.39,	15.11,	13.96,	9.57,	12.13,	1633,	1643
77,	8430,	8501,	9033,	8176,	7864,	8344,	8156,	8770,	8328,	8258,	8018,	8376,	8327,	8541,	12.28,	14.96,	14.79,	13.08,	5.84,	14.99,	13.20,	11.99,	7.69,	10.39,	15.11,	13.96,	9.57,	12.09,	1639,	1639
78,	8433,	8502,	9024,	8166,	7861,	8389,	8178,	8772,	8301,	8254,	8002,	8375,	8325,	8568,	12.28,	14.96,	14.79,	13.08,	5.84,	14.99,	13.20,	11.99,	7.69,	10.39,	15.14,	13.96,	9.57,	12.09,	1645,	1638
79,	8431,	8514,	9003,	8175,	7895,	8342,	8169,	8743,	8259,	8208,	7976,	8351,	8326,	8562,	12.28,	14.96,	14.79,	13.08,	5.84,	14.99,	13.20,	11.99,	7.69,	10.39,	15.14,	13.94,	9.57,	12.09,	1653,	1636
80,	8407,	8502,	8997,	8162,	7898,	8300,	8136,	8719,	8271,	8204,	7980,	8347,	8323,	8531,	12.28,	14.96,	14.79,	13.08,	5.84,	14.99,	13.20,	11.99,	7.69,	10.39,	15.14,	13.94,	9.54,	12.09,	1658,	1635
81,	8416,	8465,	9003,	8158,	7886,	8356,	8156,	8734,	8333,	8219,	7979,	8362,	8321,	8564,	12.28,	14.96,	14.79,	13.08,	5.84,	14.99,	13.20,	11.99,	7.69,	10.39,	15.14,	13.94,	9.54,	12.09,	1667,	1635
82,	8451,	8506,	9035,	8202,	7862,	8370,	8174,	8767,	8352,	8238,	7983,	8387,	8343,	8555,	12.28,	14.96,	14.79,	13.08,	5.84,	14.99,	13.20,	11.99,	7.69,	10.39,	15.14,	13.94,	9.54,	12.09,	1672,	1633
83,	8444,	8546,	9021,	8201,	7810,	8294,	8152,	8744,	8256,	8250,	7974,	8375,	8338,	8547,	12.28,	14.96,	14.79,	13.08,	5.84,	14.99,	13.20,	11.99,	7.69,	10.39,	15.14,	13.93,	9.54,	12.09,	1679,	1631
84,	8403,	8510,	8982,	8156,	7806,	8272,	8130,	8711,	8224,	8231,	7955,	8351,	8301,	8548,	12.28,	14.96,	14.79,	13.08,	5.84,	14.99,	13.20,	11.99,	7.69,	10.39,	15.14,	13.93,	9.57,	12.09,	1684,	1627
85,	8384,	8469,	9002,	8162,	7850,	8309,	8127,	8729,	8323,	8207,	7962,	8376,	8298,	8533,	12.28,	14.96,	14.79,	13.08,	5.84,	14.99,	13.20,	11.99,	7.69,	10.39,	15.14,	13.93,	9.57,	12.13,	1689,	1626
86,	8388,	8444,	9004,	8185,	7837,	8313,	8138,	8717,	8324,	8182,	7959,	8382,	8297,	8560,	12.28,	14.96,	14.79,	13.08,	5.84,	14.99,	13.20,	11.99,	7.69,	10.39,	15.14,	13.93,	9.57,	12.13,	1694,	1628
87,	8397,	8473,	8996,	8188,	7824,	8333,	8151,	8711,	8258,	8209,	7966,	8374,	8299,	8549,	12.28,	14.96,	14.79,	13.08,	5.84,	14.99,	13.20,	11.99,	7.69,	10.39,	15.14,	13.97,	9.57,	12.13,	1696,	1631
88,	8414,	8545,	9019,	8190,	7821,	8358,	8163,	8744,	8274,	8249,	7987,	8393,	8324,	8546,	12.28,	14.96,	14.79,	13.08,	5.84,	14.99,	13.20,	11.99,	7.69,	10.39,	15.14,	13.97,	9.59,	12.13,	1697,	1633
89,	8422,	8541,	9027,	8188,	7795,	8339,	8154,	8744,	8332,	8220,	8008,	8407,	8347,	8574,	12.28,	14.96,	14.79,	13.08,	5.84,	14.99,	13.20,	11.99,	7.69,	10.39,	15.14,	13.97,	9.59,	12.12,	1695,	1635
90,	8417,	8497,	9026,	8184,	7799,	8335,	8144,	8747,	8335,	8207,	8038,	8420,	8371,	8551,	12.28,	14.96,	14.79,	13.08,	5.84,	14.99,	13.20,	11.99,	7.69,	10.39,	15.11,	13.97,	9.59,	12.12,	1693,	1633
91,	8420,	8494,	9011,	8169,	7765,	8298,	8150,	8753,	8266,	8240,	8015,	8408,	8357,	8559,	12.28,	14.96,	14.79,	13.08,	5.84,	14.99,	13.20,	11.99,	7.69,	10.39,	15.11,	13.96,	9.59,	12.12,	1686,	1629
92,	8413,	8518,	9005,	8160,	7727,	8259,	8130,	8737,	8280,	8253,	7999,	8406,	8331,	8560,	12.28,	14.96,	14.79,	13.08,	5.84,	14.99,	13.20,	11.99,	7.69,	10.39,	15.11,	13.96,	9.57,	12.12,	1680,	1626
93,	8405,	8516,	9020,	8170,	7805,	8336,	8128,	8739,	8355,	8223,	8031,	8428,	8344,	8546,	12.28,	14.96,	14.79,	13.08,	5.84,	14.99,	13.20,	11.99,	7.69,	10.39,	15.11,	13.96,	9.57,	12.09,	1672,	1624
94,	8401,	8464,	8996,	8169,	7828,	8370,	8147,	8741,	8312,	8208,	8019,	8403,	8353,	8561,	12.28,	14.96,	14.79,	13.08,	5.84,	14.99,	13.20,	11.99,	7.69,	10.39,	15.16,	13.96,	9.57,	12.09,	1665,	1625
95,	8393,	8459,	8980,	8161,	7737,	8287,	8119,	8732,	8287,	8233,	8008,	8391,	8358,	8537,	12.28,	14.96,	14.79,	13.08,	5.84,	14.99,	13.20,	11.99,	7.69,	10.39,	15.16,	13.97,	9.57,	12.09,	1657,	1626
96,	8407,	8497,	8998,	8156,	7760,	8301,	8115,	8733,	8360,	8212,	8025,	8414,	8357,	8553,	12.28,	14.96,	14.79,	13.08,	5.84,	14.99,	13.20,	11.99,	7.69,	10.39,	15.16,	13.97,	9.59,	12.09,	1648,	1629
97,	8422,	8497,	9012,	8154,	7879,	8398,	8148,	8743,	8341,	8210,	8031,	8426,	8369,	8571,	12.28,	14.96,	14.79,	13.08,	5.84,	14.99,	13.20,	11.99,	7.69,	10.39,	15.16,	13.97,	9.59,	12.09,	1641,	1627
98,	8423,	8493,	9009,	8154,	7868,	8378,	8144,	8745,	8262,	8262,	8039,	8433,	8392,	8537,	12.28,	14.96,	14.79,	13.08,	5.84,	14.99,	13.20,	11.99,	7.69,	10.39,	15.11,	13.97,	9.59,	12.09,	1634,	1624
99,	8427,	8494,	8979,	8140,	7772,	8324,	8127,	8731,	8281,	8238,	8022,	8414,	8370,	8552,	12.28,	14.96,	14.79,	13.08,	5.84,	14.99,	13.20,	11.99,	7.69,	10.39,	15.11,	13.97,	9.59,	12.09,	1629,	1621
100,	8416,	8496,	8973,	8124,	7784,	8357,	8110,	8736,	8330,	8212,	8015,	8408,	8363,	8546,	12.28,	14.96,	14.79,	13.08,	5.84,	14.99,	13.20,	11.99,	7.69,	10.39,	15.11,	13.97,	9.57,	12.09,	1622,	1621
101,	8420,	8483,	8984,	8123,	7841,	8364,	8108,	8741,	8309,	8240,	8030,	8419,	8386,	8542,	12.28,	14.96,	14.79,	13.08,	5.84,	14.99,	13.20,	11.99,	7.69,	10.39,	15.11,	13.97,	9.57,	12.09,	1620,	1620
102,	8442,	8466,	8978,	8125,	7851,	8334,	8123,	8729,	8308,	8240,	8032,	8417,	8378,	8558,	12.28,	14.96,	14.79,	13.08,	5.84,	14.99,	13.20,	11.99,	7.69,	10.39,	15.16,	13.97,	9.57,	12.09,	1614,	1622
103,	8441,	8471,	8996,	8135,	7862,	8376,	8130,	8737,	8366,	8255,	8053,	8433,	8378,	8534,	12.28,	14.96,	14.79,	13.08,	5.84,	14.99,	13.20,	11.99,	7.69,	10.39,	15.16,	13.96,	9.57,	12.09,	1614,	1624
104,	8434,	8479,	8998,	8136,	7871,	8405,	8141,	8723,	8342,	8270,	8059,	8436,	8390,	8550,	12.28,	14.96,	14.79,	13.08,	5.84,	14.99,	13.20,	11.99,	7.69,	10.39,	15.16,	13.96,	9.56,	12.09,	1615,	1627
105,	8431,	8497,	8988,	8132,	7874,	8379,	8140,	8704,	8293,	8246,	8051,	8426,	8395,	8548,	12.28,	14.96,	14.79,	13.08,	5.84,	14.99,	13.20,	11.99,	7.69,	10.39,	15.16,	13.96,	9.56,	12.09,	1615,	1637
106,	8457,	8527,	9021,	8155,	7884,	8369,	8141,	8724,	8325,	8243,	8078,	8451,	8417,	8548,	12.28,	14.96,	14.79,	13.08,	5.84,	14.99,	13.20,	11.99,	7.69,	10.39,	15.13,	13.96,	9.56,	12.09,	1617,	1646
107,	8504,	8568,	9063,	8178,	7891,	8378,	8173,	8761,	8361,	8255,	8106,	8479,	8450,	8581,	12.28,	14.96,	14.79,	13.08,	5.84,	14.99,	13.20,	11.99,	7.69,	10.39,	15.13,	13.94,	9.56,	12.09,	1620,	1655
108,	8512,	8597,	9091,	8204,	7921,	8428,	8196,	8794,	8390,	8274,	8130,	8502,	8476,	8561,	12.28,	14.96,	14.79,	13.08,	5.84,	14.99,	13.20,	11.99,	7.69,	10.39,	15.13,	13.94,	9.54,	12.09,	1625,	1659
109,	8509,	8547,	9097,	8236,	7978,	8489,	8207,	8794,	8415,	8297,	8132,	8505,	8461,	8574,	12.28,	14.96,	14.79,	13.08,	5.84,	14.99,	13.20,	11.99,	7.69,	10.39,	15.13,	13.94,	9.54,	12.13,	1630,	1659
110,	8535,	8529,	9110,	8241,	7997,	8489,	8221,	8793,	8432,	8323,	8141,	8505,	8446,	8581,	12.28,	14.96,	14.79,	13.08,	5.84,	14.99,	13.20,	11.99,	7.69,	10.39,	15.13,	13.94,	9.54,	12.13,	1638,	1655
111,	8558,	8600,	9143,	8247,	7957,	8453,	8227,	8821,	8441,	8344,	8174,	8530,	8484,	8562,	12.28,	14.96,	14.79,	13.08,	5.84,	14.99,	13.20,	11.99,	7.69,	10.39,	15.13,	13.97,	9.54,	12.13,	1644,	1653
112,	8551,	8609,	9142,	8254,	7935,	8445,	8228,	8813,	8419,	8315,	8171,	8532,	8502,	8589,	12.28,	14.96,	14.79,	13.08,	5.84,	14.99,	13.20,	11.99,	7.69,	10.39,	15.13,	13.97,	9.54,	12.13,	1651,	1655
113,	8546,	8591,	9147,	8244,	7944,	8451,	8210,	8791,	8419,	8294,	8173,	8535,	8489,	8581,	12.28,	14.96,	14.79,	13.08,	5.84,	14.99,	13.20,	11.99,	7.69,	10.39,	15.13,	13.97,	9.54,	12.12,	1663,	1668
114,	8564,	8592,	9154,	8245,	7925,	8422,	8200,	8780,	8415,	8299,	8177,	8544,	8478,	8583,	12.28,	14.96,	14.79,	13.08,	5.84,	14.99,	13.20,	11.99,	7.69,	10.39,	15.11,	13.97,	9.54,	12.12,	1667,	1671
115,	8571,	8594,	9140,	8238,	7894,	8403,	8203,	8769,	8393,	8297,	8161,	8529,	8488,	8588,	12.28,	14.96,	14.79,	13.08,	5.84,	14.99,	13.20,	11.99,	7.69,	10.39,	15.11,	13.97,	9.54,	12.12,	1667,	1673
116,	8544,	8603,	9144,	8199,	7908,	8431,	8196,	8774,	8412,	8293,	8163,	8527,	8492,	8563,	12.28,	14.96,	14.79,	13.08,	5.84,	14.99,	13.20,	11.99,	7.69,	10.39,	15.11,	13.97,	9.54,	12.12,	1667,	1671
117,	8507,	8544,	9117,	8189,	7919,	8422,	8195,	8756,	8416,	8275,	8142,	8509,	8440,	8585,	12.28,	14.96,	14.79,	13.08,	5.84,	14.99,	13.20,	11.99,	7.69,	10.39,	15.11,	13.97,	9.54,	12.13,	1663,	1671
118,	8475,	8487,	9076,	8230,	7884,	8377,	8189,	8727,	8396,	8278,	8109,	8474,	8412,	8558,	12.28,	14.96,	14.79,	13.08,	5.84,	14.99,	13.20,	11.99,	7.69,	10.39,	15.13,	13.97,	9.54,	12.13,	1659,	1669
119,	8467,	8516,	9061,	8215,	7860,	8390,	8191,	8731,	8379,	8300,	8104,	8452,	8438,	8533,	12.28,	14.96,	14.79,	13.08,	5.84,	14.99,	13.20,	11.99,	7.69,	10.39,	15.13,	13.97,	9.54,	12.13,	1652,	1669
120,	8479,	8558,	9049,	8164,	7871,	8421,	8204,	8734,	8371,	8278,	8102,	8439,	8449,	8566,	12.28,	14.96,	14.79,	13.08,	5.84,	14.99,	13.20,	11.99,	7.69,	10.39,	15.13,	13.97,	9.54,	12.13,	1648,	1668
121,	8487,	8576,	9066,	8184,	7878,	8403,	8192,	8739,	8390,	8251,	8104,	8459,	8445,	8555,	12.28,	14.96,	14.79,	13.08,	5.84,	14.99,	13.20,	11.99,	7.69,	10.39,	15.13,	13.97,	9.54,	12.09,	1640,	1667
122,	8514,	8559,	9102,	8221,	7858,	8380,	8205,	8754,	8408,	8268,	8121,	8489,	8461,	8579,	12.28,	14.96,	14.79,	13.08,	5.84,	14.99,	13.20,	11.99,	7.69,	10.39,	15.13,	13.97,	9.54,	12.09,	1637,	1667
123,	8545,	8540,	9132,	8220,	7866,	8408,	8232,	8789,	8434,	8318,	8168,	8512,	8504,	8595,	12.28,	14.96,	14.79,	13.08,	5.84,	14.99,	13.20,	11.99,	7.69,	10.39,	15.13,	13.93,	9.54,	12.09,	1632,	1663
124,	8529,	8543,	9126,	8209,	7918,	8443,	8217,	8800,	8447,	8342,	8186,	8514,	8516,	8567,	12.28,	14.96,	14.79,	13.08,	5.84,	14.99,	13.20,	11.99,	7.69,	10.39,	15.13,	13.93,	9.56,	12.09,	1627,	1665
125,	8506,	8533,	9093,	8203,	7963,	8417,	8195,	8766,	8409,	8309,	8147,	8495,	8482,	8583,	12.28,	14.96,	14.79,	13.08,	5.84,	14.99,	13.20,	11.99,	7.69,	10.39,	15.13,	13.93,	9.56,	12.13,	1626,	1667
126,	8525,	8553,	9121,	8236,	7988,	8403,	8199,	8779,	8407,	8309,	8171,	8527,	8514,	8584,	12.28,	14.96,	14.79,	13.08,	5.84,	14.99,	13.20,	11.99,	7.69,	10.39,	15.16,	13.93,	9.56,	12.13,	1623,	1671
127,	8548,	8584,	9150,	8252,	8014,	8438,	8219,	8807,	8436,	8334,	8216,	8549,	8577,	8591,	12.28,	14.96,	14.79,	13.08,	5.84,	14.99,	13.20,	11.99,	7.69,	10.39,	15.16,	13.97,	9.56,	12.13,	1622,	1677
0,	8540,	8571,	9144,	8248,	8102,	8496,	8254,	8818,	8482,	8342,	8214,	8546,	8577,	8577,	12.36,	14.96,	14.79,	13.08,	5.84,	14.99,	13.20,	11.99,	7.69,	10.39,	15.16,	13.97,	9.56,	12.13,	1623,	1677
1,	8557,	8615,	9172,	8275,	8047,	8455,	8243,	8824,	8457,	8341,	8232,	8564,	8595,	8609,	12.36,	14.98,	14.79,	13.08,	5.84,	14.99,	13.20,	11.99,	7.69,	10.39,	15.16,	13.97,	9.56,	12.13,	1622,	1674
2,	8552,	8619,	9175,	8269,	8026,	8454,	8224,	8802,	8419,	8339,	8240,	8566,	8620,	8593,	12.36,	14.98,	14.87,	13.08,	5.84,	14.99,	13.20,	11.99,	7.69,	10.39,	15.16,	13.97,	9.56,	12.13,	1626,	1670
3,	8563,	8596,	9194,	8291,	8086,	8500,	8241,	8803,	8447,	8360,	8266,	8593,	8664,	8589,	12.36,	14.98,	14.87,	13.05,	5.84,	14.99,	13.20,	11.99,	7.69,	10.39,	15.16,	13.97,	9.56,	12.13,	1627,	1667
4,	8605,	8603,	9226,	8318,	8086,	8493,	8258,	8827,	8489,	8385,	8293,	8622,	8679,	8625,	12.36,	14.98,	14.87,	13.05,	6.96,	14.99,	13.20,	11.99,	7.69,	10.39,	15.16,	13.97,	9.56,	12.13,	1630,	1665
5,	8621,	8654,	9264,	8337,	8054,	8477,	8244,	8847,	8489,	8388,	8321,	8645,	8696,	8610,	12.36,	14.98,	14.87,	13.05,	6.96,	14.99,	13.20,	11.99,	7.69,	10.39,	15.16,	13.97,	9.56,	12.13,	1634,	1665
6,	8614,	8669,	9269,	8360,	8068,	8493,	8249,	8839,	8474,	8361,	8321,	8640,	8719,	8627,	12.36,	14.98,	14.87,	13.05,	6.96,	14.99,	13.23,	11.99,	7.69,	10.39,	15.16,	13.97,	9.56,	12.13,	1636,	1667
7,	8619,	8664,	9279,	8369,	8070,	8483,	8265,	8857,	8524,	8401,	8345,	8656,	8758,	8634,	12.36,	14.98,	14.87,	13.05,	6.96,	14.99,	13.23,	11.99,	7.69,	10.39,	15.16,	13.97,	9.56,	12.13,	1641,	1666
8,	8627,	8660,	9298,	8356,	8046,	8467,	8269,	8880,	8548,	8448,	8381,	8691,	8792,	8627,	12.36,	14.98,	14.87,	13.05,	6.96,	14.99,	13.23,	11.99,	7.48,	10.39,	15.16,	13.97,	9.56,	12.13,	1644,	1669
9,	8619,	8656,	9282,	8355,	8033,	8492,	8275,	8849,	8479,	8403,	8359,	8673,	8775,	8644,	12.36,	14.98,	14.87,	13.05,	6.96,	14.99,	13.23,	11.99,	7.48,	10.47,	15.16,	13.97,	9.56,	12.13,	1650,	1670
10,	8611,	8708,	9296,	8372,	8032,	8497,	8269,	8849,	8476,	8389,	8373,	8670,	8791,	8621,	12.36,	14.98,	14.87,	13.05,	6.96,	14.99,	13.23,	11.99,	7.48,	10.47,	15.13,	13.97,	9.56,	12.13,	1654,	1668
11,	8619,	8706,	9307,	8374,	8044,	8484,	8276,	8869,	8515,	8412,	8397,	8679,	8826,	8631,	12.36,	14.98,	14.87,	13.05,	6.96,	14.99,	13.23,	11.99,	7.48,	10.47,	15.13,	13.99,	9.56,	12.13,	1660,	1668
12,	8614,	8644,	9291,	8380,	8051,	8507,	8285,	8853,	8487,	8405,	8371,	8658,	8813,	8635,	12.36,	14.98,	14.87,	13.05,	6.96,	14.99,	13.23,	11.99,	7.48,	10.47,	15.13,	13.99,	9.56,	12.13,	1662,	1667
13,	8595,	8659,	9292,	8388,	8027,	8504,	8265,	8832,	8448,	8401,	8359,	8650,	8788,	8606,	12.36,	14.98,	14.87,	13.05,	6.96,	14.99,	13.23,	11.99,	7.48,	10.47,	15.13,	13.99,	9.56,	12.28,	1664,	1664
14,	8586,	8676,	9266,	8369,	8000,	8463,	8246,	8811,	8441,	8364,	8341,	8629,	8763,	8627,	12.36,	14.98,	14.87,	13.05,	6.96,	14.99,	13.23,	11.99,	7.48,	10.47,	15.14,	13.99,	9.56,	12.28,	1664,	1663
15,	8582,	8655,	9257,	8371,	7992,	8478,	8245,	8819,	8479,	8345,	8338,	8620,	8773,	8616,	12.36,	14.98,	14.87,	13.05,	6.96,	14.99,	13.23,	11.99,	7.48,	10.47,	15.14,	14.00,	9.56,	12.28,	1664,	1663
16,	8601,	8680,	9296,	8417,	8002,	8520,	8271,	8850,	8503,	8403,	8380,	8659,	8809,	8624,	12.36,	14.98,	14.87,	13.05,	6.96,	14.99,	13.23,	11.99,	7.48,	10.47,	15.14,	14.00,	9.56,	12.28,	1664,	1661
17,	8628,	8717,	9318,	8428,	8005,	8511,	8277,	8850,	8492,	8443,	8405,	8684,	8810,	8652,	12.36,	14.98,	14.87,	13.05,	6.96,	14.99,	13.23,	11.99,	7.48,	10.47,	15.14,	14.00,	9.56,	12.28,	1663,	1662
18,	8621,	8688,	9309,	8400,	7983,	8482,	8253,	8850,	8498,	8421,	8397,	8671,	8803,	8622,	12.36,	14.98,	14.87,	13.05,	6.96,	14.99,	13.23,	11.99,	7.48,	10.47,	15.14,	14.00,	9.56,	12.28,	1664,	1662
19,	8600,	8649,	9271,	8391,	7968,	8483,	8270,	8863,	8497,	8389,	8369,	8637,	8801,	8633,	12.36,	14.98,	14.87,	13.05,	6.96,	14.99,	13.23,	11.99,	7.48,	10.47,	15.14,	14.00,	9.56,	12.28,	1663,	1661
20,	8581,	8693,	9239,	8385,	7985,	8511,	8286,	8864,	8504,	8393,	8343,	8610,	8777,	8624,	12.36,	14.98,	14.87,	13.05,	6.96,	14.99,	13.23,	11.99,	7.48,	10.47,	15.14,	14.00,	9.56,	12.28,	1664,	1664
21,	8568,	8693,	9222,	8361,	7997,	8523,	8275,	8853,	8506,	8385,	8322,	8595,	8739,	8598,	12.36,	14.98,	14.87,	13.05,	6.96,	14.99,	13.23,	11.99,	7.48,	10.47,	15.14,	14.00,	9.56,	12.28,	1664,	1664
22,	8578,	8619,	9213,	8362,	7986,	8517,	8283,	8848,	8498,	8348,	8330,	8598,	8752,	8625,	12.36,	14.98,	14.87,	13.05,	6.96,	14.99,	13.23,	11.99,	7.48,	10.47,	15.14,	14.00,	9.56,	12.28,	1663,	1666
23,	8585,	8639,	9236,	8370,	7995,	8546,	8286,	8862,	8518,	8367,	8372,	8626,	8812,	8619,	12.36,	14.98,	14.87,	13.05,	6.96,	14.99,	13.23,	11.99,	7.48,	10.47,	15.14,	14.00,	9.56,	12.28,	1661,	1665
24,	8578,	8668,	9230,	8340,	7997,	8545,	8270,	8841,	8487,	8385,	8353,	8615,	8796,	8626,	12.36,	14.98,	14.87,	13.05,	6.96,	14.99,	13.23,	11.99,	7.48,	10.47,	15.14,	14.00,	9.56,	12.28,	1657,	1666
25,	8578,	8634,	9219,	8343,	7964,	8480,	8249,	8829,	8442,	8368,	8332,	8602,	8758,	8631,	12.36,	14.98,	14.87,	13.05,	6.96,	14.99,	13.23,	11.99,	7.48,	10.47,	15.14,	14.00,	9.56,	12.28,	1654,	1666
26,	8597,	8658,	9254,	8385,	7948,	8473,	8253,	8866,	8470,	8381,	8376,	8647,	8791,	8621,	12.36,	14.98,	14.87,	13.05,	6.96,	14.99,	13.23,	11.99,	7.48,	10.47,	15.14,	14.00,	9.56,	12.28,	1653,	1667
27,	8592,	8669,	9240,	8363,	7953,	8512,	8265,	8861,	8486,	8389,	8373,	8644,	8800,	8642,	12.36,	14.98,	14.87,	13.05,	6.96,	14.99,	13.23,	11.99,	7.48,	10.47,	15.14,	14.00,	9.56,	12.28,	1650,	1667
28,	8554,	8619,	9198,	8306,	7949,	8500,	8232,	8821,	8471,	8371,	8340,	8605,	8772,	8617,	12.36,	14.98,	14.87,	13.05,	6.96,	14.99,	13.23,	11.99,	7.48,	10.47,	15.14,	14.00,	9.56,	12.28,	1647,	1670
29,	8547,	8604,	9197,	8316,	7933,	8475,	8208,	8807,	8466,	8346,	8334,	8601,	8764,	8612,	12.36,	14.98,	14.87,	13.05,	6.96,	14.99,	13.23,	11.99,	7.48,	10.47,	15.14,	14.00,	9.56,	12.28,	1647,	1668
30,	8575,	8647,	9216,	8367,	7934,	8484,	8241,	8827,	8505,	8354,	8342,	8613,	8769,	8628,	12.36,	14.98,	14.87,	13.05,	6.96,	14.99,	13.23,	11.99,	7.48,	10.47,	15.14,	14.00,	9.56,	12.28,	1644,	1665
31,	8578,	8663,	9219,	8372,	7952,	8497,	8261,	8854,	8519,	8389,	8355,	8615,	8774,	8603,	12.36,	14.98,	14.87,	13.05,	6.96,	14.99,	13.23,	11.99,	7.48,	10.47,	15.14,	14.00,	9.56,	12.28,	1644,	1661
32,	8555,	8601,	9179,	8324,	7937,	8500,	8245,	8828,	8414,	8351,	8324,	8584,	8758,	8619,	12.36,	14.98,	14.87,	13.05,	6.96,	14.99,	13.23,	11.99,	7.48,	10.47,	15.14,	14.00,	9.56,	12.28,	1643,	1653
33,	8540,	8582,	9169,	8315,	7917,	8519,	8229,	8818,	8381,	8322,	8314,	8581,	8761,	8611,	12.36,	14.98,	14.87,	13.05,	6.96,	14.99,	13.23,	11.99,	7.48,	10.47,	15.14,	14.00,	9.56,	12.28,	1642,	1652
34,	8546,	8628,	9189,	8332,	7920,	8508,	8228,	8840,	8466,	8366,	8327,	8603,	8766,	8597,	12.36,	14.98,	14.87,	13.05,	6.96,	14.99,	13.23,	11.99,	7.48,	10.47,	15.14,	14.00,	9.56,	12.28,	1640,	1652
35,	8551,	8631,	9179,	8304,	7920,	8460,	8212,	8822,	8476,	8362,	8300,	8594,	8724,	8612,	12.36,	14.98,	14.87,	13.05,	6.96,	14.99,	13.23,	11.99,	7.48,	10.47,	15.14,	14.00,	9.56,	12.28,	1638,	1655
36,	8548,	8603,	9187,	8303,	7892,	8455,	8194,	8807,	8446,	8323,	8305,	8610,	8728,	8590,	12.36,	14.98,	14.87,	13.05,	6.96,	14.99,	13.23,	11.99,	7.48,	10.47,	15.14,	14.00,	9.56,	12.28,	1638,	1659
37,	8554,	8580,	9197,	8347,	7874,	8486,	8208,	8803,	8433,	8322,	8330,	8630,	8777,	8610,	12.36,	14.98,	14.87,	13.05,	6.96,	14.99,	13.23,	11.99,	7.48,	10.47,	15.14,	14.00,	9.56,	12.28,	1636,	1663
38,	8546,	8580,	9186,	8351,	7913,	8499,	8204,	8796,	8424,	8363,	8329,	8629,	8789,	8618,	12.36,	14.98,	14.87,	13.05,	6.96,	14.99,	13.23,	11.99,	7.48,	10.47,	15.14,	14.00,	9.56,	12.28,	1637,	1661
39,	8536,	8622,	9185,	8326,	7939,	8476,	8180,	8805,	8450,	8386,	8319,	8629,	8766,	8596,	12.36,	14.98,	14.87,	13.05,	6.96,	14.99,	13.23,	11.99,	7.48,	10.47,	15.14,	14.00,	9.56,	12.28,	1637,	1652
40,	8541,	8628,	9167,	8313,	7910,	8470,	8176,	8796,	8472,	8347,	8295,	8612,	8734,	8612,	12.36,	14.98,	14.87,	13.05,	6.96,	14.99,	13.23,	11.99,	7.48,	10.47,	15.14,	14.00,	9.56,	12.28,	1637,	1646
41,	8531,	8578,	9161,	8321,	7901,	8497,	8179,	8789,	8461,	8333,	8296,	8603,	8730,	8595,	12.36,	14.98,	14.87,	13.05,	6.96,	14.99,	13.23,	11.99,	7.48,	10.47,	15.14,	14.00,	9.56,	12.28,	1640,	1643
42,	8536,	8565,	9169,	8323,	7897,	8473,	8191,	8803,	8445,	8351,	8297,	8602,	8732,	8602,	12.36,	14.98,	14.87,	13.05,	6.96,	14.99,	13.23,	11.99,	7.48,	10.47,	15.14,	14.00,	9.56,	12.28,	1642,	1642
43,	8540,	8602,	9150,	8303,	7870,	8432,	8184,	8809,	8441,	8326,	8284,	8593,	8723,	8608,	12.36,	14.98,	14.87,	13.05,	6.96,	14.99,	13.23,	11.99,	7.48,	10.47,	15.14,	14.00,	9.56,	12.28,	1646,	1644
44,	8517,	8606,	9134,	8291,	7860,	8456,	8164,	8808,	8439,	8283,	8282,	8592,	8721,	8582,	12.36,	14.98,	14.87,	13.05,	6.96,	14.99,	13.23,	11.99,	7.48,	10.47,	15.14,	14.00,	9.56,	12.28,	1647,	1647
45,	8518,	8568,	9149,	8308,	7859,	8470,	8178,	8788,	8418,	8282,	8272,	8585,	8704,	8606,	12.36,	14.98,	14.87,	13.05,	6.96,	14.99,	13.23,	11.99,	7.48,	10.47,	15.14,	14.00,	9.56,	12.28,	1650,	1654
46,	8537,	8588,	9187,	8324,	7865,	8454,	8182,	8773,	8415,	8333,	8300,	8605,	8712,	8595,	12.36,	14.98,	14.87,	13.05,	6.96,	14.99,	13.23,	11.99,	7.48,	10.47,	15.14,	14.00,	9.56,	12.28,	1653,	1655
47,	8547,	8626,	9198,	8314,	7850,	8442,	8165,	8764,	8405,	8345,	8333,	8631,	8733,	8594,	12.36,	14.98,	14.87,	13.05,	6.96,	14.99,	13.23,	11.99,	7.48,	10.47,	15.14,	14.00,	9.56,	12.28,	1654,	1656
48,	8547,	8613,	9184,	8306,	7816,	8423,	8163,	8748,	8388,	8319,	8320,	8626,	8725,	8617,	12.36,	14.98,	14.87,	13.05,	6.96,	14.99,	13.23,	11.99,	7.48,	10.47,	15.14,	14.00,	9.56,	12.28,	1657,	1651
49,	8535,	8588,	9185,	8301,	7831,	8444,	8161,	8764,	8433,	8333,	8322,	8633,	8731,	8593,	12.36,	14.98,	14.87,	13.05,	6.96,	14.99,	13.23,	11.99,	7.48,	10.47,	15.14,	14.00,	9.56,	12.28,	1657,	1649
50,	8510,	8546,	9152,	8287,	7843,	8466,	8162,	8773,	8460,	8325,	8316,	8618,	8720,	8611,	12.36,	14.98,	14.87,	13.05,	6.96,	14.99,	13.23,	11.99,	7.48,	10.47,	15.14,	14.00,	9.56,	12.28,	1660,	1648
51,	8490,	8543,	9127,	8297,	7826,	8451,	8158,	8765,	8431,	8298,	8286,	8582,	8675,	8602,	12.36,	14.98,	14.87,	13.05,	6.96,	14.99,	13.23,	11.99,	7.48,	10.47,	15.14,	14.00,	9.56,	12.28,	1661,	1648
52,	8476,	8565,	9125,	8299,	7809,	8445,	8151,	8766,	8422,	8271,	8266,	8561,	8659,	8569,	12.36,	14.98,	14.87,	13.05,	6.96,	14.99,	13.23,	11.99,	7.48,	10.47,	15.14,	14.00,	9.56,	12.28,	1660,	1651
53,	8469,	8558,	9103,	8269,	7781,	8436,	8162,	8773,	8448,	8238,	8253,	8542,	8666,	8586,	12.36,	14.98,	14.87,	13.05,	6.96,	14.99,	13.23,	11.99,	7.48,	10.47,	15.14,	14.00,	9.56,	12.28,	1660,	1653
54,	8476,	8587,	9117,	8269,	7771,	8425,	8163,	8798,	8429,	8279,	8258,	8545,	8651,	8573,	12.36,	14.98,	14.87,	13.05,	6.96,	14.99,	13.23,	11.99,	7.48,	10.47,	15.14,	14.00,	9.56,	12.28,	1658,	1657
55,	8467,	8562,	9112,	8277,	7799,	8434,	8154,	8788,	8363,	8306,	8241,	8538,	8619,	8578,	12.73,	15.13,	14.89,	13.41,	7.08,	14.77,	13.39,	11.99,	7.27,	10.56,	15.02,	13.88,	9.59,	12.31,	1657,	1660
56,	8451,	8483,	9086,	8274,	7813,	8438,	8145,	8759,	8375,	8261,	8240,	8538,	8644,	8577,	12.73,	15.13,	14.89,	13.41,	7.08,	14.77,	13.39,	11.99,	7.27,	10.56,	15.02,	13.88,	9.59,	12.31,	1656,	1662
57,	8466,	8519,	9111,	8290,	7794,	8424,	8134,	8755,	8422,	8255,	8273,	8567,	8680,	8558,	12.73,	15.13,	14.89,	13.41,	7.08,	14.77,	13.39,	11.99,	7.27,	10.56,	15.02,	13.88,	9.59,	12.31,	1655,	1662
58,	8486,	8586,	9108,	8285,	7784,	8414,	8128,	8718,	8388,	8261,	8242,	8549,	8636,	8579,	12.73,	15.13,	14.89,	13.41,	7.08,	14.77,	13.39,	11.99,	7.27,	10.56,	15.02,	13.88,	9.59,	12.31,	1654,	1665
59,	8482,	8563,	9097,	8278,	7806,	8430,	8130,	8702,	8366,	8262,	8229,	8540,	8614,	8559,	12.73,	15.13,	14.89,	13.41,	7.08,	14.77,	13.39,	11.99,	7.27,	10.56,	15.02,	13.88,	9.59,	12.31,	1654,	1666
60,	8485,	8512,	9114,	8296,	7827,	8438,	8142,	8719,	8399,	8254,	8267,	8563,	8637,	8561,	12.73,	15.13,	14.89,	13.41,	7.08,	14.77,	13.39,	11.99,	7.27,	10.56,	15.02,	13.88,	9.59,	12.31,	1652,	1666
61,	8485,	8527,	9103,	8288,	7803,	8427,	8137,	8711,	8408,	8226,	8261,	8547,	8622,	8577,	12.73,	15.13,	14.89,	13.41,	7.08,	14.77,	13.39,	11.99,	7.27,	10.56,	15.02,	13.88,	9.59,	12.31,	1653,	1668
62,	8473,	8576,	9089,	8284,	7799,	8433,	8132,	8721,	8410,	8247,	8257,	8533,	8620,	8550,	12.73,	15.13,	14.89,	13.41,	7.08,	14.77,	13.39,	11.99,	7.27,	10.56,	15.02,	13.88,	9.59,	12.31,	1651,	1669
63,	8483,	8541,	9081,	8299,	7836,	8435,	8157,	8752,	8414,	8275,	8260,	8535,	8611,	8574,	12.73,	15.13,	14.89,	13.41,	7.08,	14.77,	13.39,	11.99,	7.27,	10.56,	15.02,	13.88,	9.59,	12.31,	1651,	1672
64,	8491,	8528,	9089,	8301,	7821,	8433,	8165,	8779,	8430,	8251,	8249,	8542,	8601,	8576,	12.73,	15.13,	14.89,	13.41,	7.08,	14.77,	13.39,	11.99,	7.27,	10.56,	15.02,	13.88,	9.59,	12.31,	1651,	1672
65,	8492,	8577,	9106,	8291,	7768,	8441,	8161,	8791,	8421,	8223,	8256,	8543,	8622,	8563,	12.73,	15.13,	14.89,	13.41,	7.08,	14.77,	13.39,	11.99,	7.27,	10.56,	15.02,	13.88,	9.59,	12.31,	1649,	1672
66,	8487,	8547,	9078,	8264,	7757,	8424,	8147,	8755,	8361,	8216,	8263,	8519,	8625,	8582,	12.73,	15.13,	14.89,	13.41,	7.08,	14.77,	13.39,	11.99,	7.27,	10.56,	15.02,	13.88,	9.59,	12.31,	1649,	1669
67,	8449,	8495,	9041,	8241,	7770,	8409,	8107,	8713,	8355,	8220,	8253,	8505,	8617,	8545,	12.73,	15.13,	14.89,	13.41,	7.08,	14.77,	13.39,	11.99,	7.27,	10.56,	15.02,	13.88,	9.59,	12.31,	1646,	1668
68,	8422,	8489,	9027,	8240,	7758,	8407,	8097,	8688,	8356,	8203,	8213,	8486,	8597,	8545,	12.73,	15.13,	14.89,	13.41,	7.08,	14.77,	13.39,	11.99,	7.27,	10.56,	15.02,	13.88,	9.59,	12.31,	1645,	1668
69,	8423,	8487,	9025,	8246,	7732,	8397,	8101,	8668,	8342,	8175,	8203,	8468,	8569,	8555,	12.73,	15.13,	14.89,	13.41,	7.08,	14.77,	13.39,	11.99,	7.27,	10.56,	15.02,	13.88,	9.59,	12.31,	1641,	1669
70,	8420,	8477,	9019,	8233,	7717,	8399,	8096,	8667,	8366,	8165,	8234,	8475,	8576,	8532,	12.73,	15.13,	14.89,	13.41,	7.08,	14.77,	13.39,	11.99,	7.27,	10.56,	15.02,	13.88,	9.59,	12.31,	1641,	1667
71,	8413,	8484,	8998,	8207,	7711,	8400,	8099,	8666,	8346,	8168,	8214,	8461,	8575,	8544,	12.73,	15.13,	14.89,	13.41,	7.08,	14.77,	13.39,	11.99,	7.27,	10.56,	15.02,	13.88,	9.59,	12.31,	1637,	1664
72,	8397,	8488,	9005,	8213,	7716,	8384,	8094,	8669,	8316,	8178,	8198,	8455,	8563,	8526,	12.73,	15.13,	14.89,	13.41,	7.08,	14.77,	13.39,	11.99,	7.27,	10.56,	15.02,	13.88,	9.59,	12.31,	1638,	1662
73,	8392,	8448,	9007,	8226,	7702,	8368,	8092,	8672,	8335,	8166,	8229,	8466,	8577,	8534,	12.73,	15.13,	14.89,	13.41,	7.08,	14.77,	13.39,	11.99,	7.27,	10.56,	15.02,	13.88,	9.59,	12.31,	1640,	1659
74,	8400,	8431,	8988,	8211,	7685,	8356,	8088,	8683,	8377,	8164,	8243,	8456,	8589,	8550,	12.73,	15.13,	14.89,	13.41,	7.08,	14.77,	13.39,	11.99,	7.27,	10.56,	15.02,	13.88,	9.59,	12.31,	1641,	1661
75,	8388,	8456,	8986,	8197,	7692,	8348,	8067,	8714,	8398,	8193,	8234,	8444,	8559,	8518,	12.73,	15.13,	14.89,	13.41,	7.08,	14.77,	13.39,	11.99,	7.27,	10.56,	15.02,	13.88,	9.59,	12.31,	1644,	1663
76,	8375,	8452,	8987,	8213,	7678,	8359,	8077,	8722,	8362,	8185,	8226,	8437,	8525,	8537,	12.73,	15.13,	14.89,	13.41,	7.08,	14.77,	13.39,	11.99,	7.27,	10.56,	15.02,	13.88,	9.59,	12.31,	1646,	1665
77,	8386,	8455,	9009,	8227,	7655,	8387,	8097,	8720,	8350,	8180,	8273,	8460,	8569,	8544,	12.73,	15.13,	14.89,	13.41,	7.08,	14.77,	13.39,	11.99,	7.27,	10.56,	15.02,	13.88,	9.59,	12.31,	1650,	1666
78,	8400,	8468,	9026,	8216,	7667,	8387,	8092,	8711,	8348,	8176,	8311,	8479,	8616,	8541,	12.73,	15.13,	14.89,	13.41,	7.08,	14.77,	13.39,	11.99,	7.27,	10.56,	15.02,	13.88,	9.59,	12.31,	1652,	1668
79,	8376,	8441,	8995,	8211,	7682,	8361,	8079,	8678,	8293,	8153,	8281,	8451,	8585,	8547,	12.73,	15.13,	14.89,	13.41,	7.08,	14.77,	13.39,	11.99,	7.27,	10.56,	15.02,	13.88,	9.59,	12.31,	1655,	1667
80,	8348,	8428,	8975,	8211,	7681,	8359,	8069,	8666,	8276,	8157,	8267,	8438,	8563,	8516,	12.73,	15.13,	14.89,	13.41,	7.08,	14.77,	13.39,	11.99,	7.27,	10.56,	15.02,	13.88,	9.59,	12.31,	1656,	1666
81,	8374,	8451,	8987,	8204,	7655,	8370,	8077,	8662,	8328,	8139,	8282,	8437,	8572,	8539,	12.73,	15.13,	14.89,	13.41,	7.08,	14.77,	13.39,	11.99,	7.27,	10.56,	15.02,	13.88,	9.59,	12.31,	1657,	1665
82,	8408,	8478,	9007,	8217,	7633,	8378,	8085,	8667,	8369,	8134,	8302,	8442,	8576,	8553,	12.73,	15.13,	14.89,	13.41,	7.08,	14.77,	13.39,	11.99,	7.27,	10.56,	15.02,	13.88,	9.81,	12.31,	1657,	1662
83,	8394,	8470,	8996,	8236,	7633,	8372,	8089,	8682,	8337,	8176,	8301,	8448,	8567,	8528,	12.73,	15.13,	14.89,	13.41,	7.08,	14.77,	13.39,	11.99,	7.27,	10.56,	15.02,	13.88,	9.81,	12.31,	1659,	1662
84,	8364,	8434,	8953,	8204,	7627,	8353,	8094,	8674,	8314,	8156,	8277,	8421,	8556,	8535,	12.73,	15.13,	14.89,	13.41,	7.08,	14.77,	13.39,	11.99,	7.27,	10.56,	15.02,	13.88,	9.81,	12.31,	1658,	1661
85,	8361,	8459,	8969,	8181,	7628,	8360,	8080,	8685,	8377,	8127,	8299,	8426,	8588,	8519,	12.73,	15.13,	14.89,	13.41,	7.08,	14.77,	13.39,	11.99,	7.27,	10.56,	15.02,	13.88,	9.81,	12.31,	1658,	1661
86,	8377,	8463,	9001,	8223,	7659,	8363,	8088,	8715,	8388,	8158,	8305,	8443,	8594,	8530,	12.73,	15.13,	14.89,	13.41,	7.08,	14.77,	13.39,	11.99,	7.27,	10.56,	15.02,	13.88,	9.81,	12.31,	1660,	1660
87,	8389,	8437,	9002,	8264,	7686,	8365,	8112,	8734,	8354,	8175,	8290,	8442,	8576,	8540,	12.73,	15.13,	14.89,	13.41,	7.08,	14.77,	13.39,	11.99,	7.27,	10.56,	15.02,	13.88,	9.81,	12.31,	1661,	1662
88,	8393,	8487,	9011,	8255,	7674,	8396,	8108,	8745,	8384,	8169,	8333,	8458,	8619,	8518,	12.73,	15.13,	14.89,	13.41,	7.08,	14.77,	13.39,	11.99,	7.27,	10.56,	15.02,	13.88,	9.81,	12.34,	1663,	1661
89,	8392,	8500,	9003,	8222,	7640,	8394,	8096,	8725,	8390,	8160,	8337,	8450,	8616,	8544,	12.73,	15.13,	14.89,	13.41,	7.08,	14.77,	13.39,	11.99,	7.27,	10.56,	15.02,	13.88,	9.81,	12.34,	1665,	1659
90,	8385,	8461,	9012,	8223,	7645,	8370,	8081,	8710,	8356,	8143,	8299,	8441,	8568,	8532,	12.73,	15.13,	14.89,	13.41,	7.08,	14.77,	13.39,	11.99,	7.27,	10.56,	15.02,	13.88,	9.81,	12.34,	1668,	1657
91,	8400,	8482,	9044,	8260,	7668,	8376,	8079,	8705,	8361,	8132,	8312,	8459,	8578,	8524,	12.73,	15.13,	14.89,	13.41,	7.08,	14.77,	13.39,	11.99,	7.27,	10.56,	15.02,	13.88,	9.81,	12.34,	1669,	1654
92,	8425,	8523,	9063,	8279,	7660,	8372,	8091,	8697,	8364,	8171,	8368,	8486,	8625,	8553,	12.73,	15.13,	14.89,	13.41,	7.08,	14.77,	13.39,	11.99,	7.27,	10.56,	15.02,	13.88,	9.81,	12.34,	1671,	1652
93,	8421,	8502,	9071,	8271,	7641,	8354,	8083,	8703,	8347,	8219,	8392,	8507,	8631,	8538,	12.73,	15.13,	14.89,	13.41,	7.08,	14.77,	13.39,	11.99,	7.27,	10.56,	15.02,	13.88,	9.81,	12.34,	1672,	1650
94,	8402,	8446,	9037,	8258,	7640,	8361,	8070,	8689,	8343,	8169,	8343,	8476,	8592,	8545,	12.73,	15.13,	14.89,	13.41,	7.08,	14.77,	13.39,	11.99,	7.27,	10.56,	15.02,	13.88,	9.81,	12.34,	1674,	1646
95,	8365,	8453,	8995,	8252,	7648,	8385,	8051,	8676,	8350,	8119,	8318,	8435,	8585,	8529,	12.73,	15.13,	14.89,	13.41,	7.08,	14.77,	13.39,	11.99,	7.27,	10.56,	15.02,	13.88,	9.81,	12.34,	1674,	1647
96,	8334,	8464,	8981,	8232,	7639,	8377,	8049,	8689,	8337,	8150,	8339,	8422,	8595,	8508,	12.73,	15.13,	14.89,	13.41,	7.08,	14.77,	13.39,	11.99,	7.27,	10.56,	15.02,	13.88,	9.81,	12.34,	1674,	1648
97,	8341,	8423,	8967,	8216,	7629,	8353,	8069,	8701,	8328,	8159,	8332,	8409,	8583,	8534,	12.73,	15.13,	14.89,	13.41,	7.08,	14.77,	13.39,	11.99,	7.27,	10.56,	15.02,	13.88,	9.81,	12.34,	1671,	1651
98,	8362,	8471,	8989,	8241,	7609,	8372,	8075,	8723,	8369,	8157,	8350,	8432,	8605,	8523,	12.73,	15.13,	14.89,	13.41,	7.08,	14.77,	13.39,	11.99,	7.27,	10.56,	15.02,	13.88,	9.81,	12.34,	1671,	1652
99,	8383,	8529,	9009,	8266,	7567,	8393,	8083,	8731,	8377,	8170,	8378,	8448,	8638,	8535,	12.73,	15.13,	14.89,	13.41,	7.08,	14.77,	13.39,	11.99,	7.27,	10.56,	15.02,	13.88,	9.81,	12.34,	1669,	1650
100,	8379,	8497,	9002,	8270,	7586,	8375,	8079,	8721,	8368,	8169,	8375,	8434,	8618,	8539,	12.73,	15.13,	14.89,	13.41,	7.08,	14.77,	13.39,	11.99,	7.27,	10.56,	15.02,	13.88,	9.81,	12.34,	1670,	1649
101,	8362,	8485,	9008,	8273,	7674,	8376,	8065,	8728,	8385,	8163,	8378,	8441,	8604,	8514,	12.73,	15.13,	14.89,	13.41,	7.08,	14.77,	13.39,	11.99,	7.27,	10.56,	15.02,	13.88,	9.81,	12.34,	1669,	1655
102,	8357,	8484,	8987,	8255,	7697,	8390,	8060,	8697,	8358,	8139,	8363,	8427,	8614,	8532,	12.73,	15.13,	14.89,	13.41,	7.08,	14.77,	13.39,	11.99,	7.27,	10.56,	15.02,	13.88,	9.81,	12.34,	1669,	1668
103,	8356,	8483,	8978,	8247,	7660,	8371,	8044,	8661,	8352,	8139,	8366,	8422,	8631,	8519,	12.73,	15.13,	14.89,	13.41,	7.08,	14.77,	13.39,	11.99,	7.27,	10.56,	15.02,	13.88,	9.81,	12.34,	1668,	1674
104,	8376,	8500,	9014,	8276,	7672,	8375,	8055,	8678,	8393,	8140,	8404,	8454,	8641,	8527,	12.73,	15.13,	14.89,	13.41,	7.08,	14.77,	13.39,	11.99,	7.27,	10.56,	15.02,	13.88,	9.81,	12.34,	1664,	1678
105,	8406,	8515,	9037,	8293,	7695,	8412,	8077,	8706,	8422,	8134,	8417,	8477,	8630,	8556,	12.73,	15.13,	14.89,	13.41,	7.08,	14.77,	13.39,	11.99,	7.27,	10.56,	15.02,	13.88,	9.81,	12.34,	1664,	1668
106,	8402,	8502,	9032,	8265,	7675,	8411,	8072,	8723,	8406,	8173,	8413,	8487,	8637,	8532,	12.73,	15.13,	14.89,	13.41,	7.08,	14.77,	13.39,	11.99,	7.27,	10.56,	15.02,	13.88,	9.81,	12.34,	1659,	1658
107,	8386,	8478,	8994,	8219,	7651,	8407,	8080,	8718,	8357,	8186,	8385,	8456,	8634,	8532,	12.73,	15.13,	14.89,	13.41,	7.08,	14.77,	13.39,	11.99,	7.27,	10.56,	15.02,	13.88,	9.81,	12.34,	1656,	1649
108,	8379,	8488,	8977,	8211,	7651,	8413,	8081,	8715,	8362,	8161,	8371,	8428,	8597,	8524,	12.73,	15.13,	14.89,	13.41,	7.08,	14.77,	13.39,	11.99,	7.27,	10.56,	15.02,	13.88,	9.81,	12.34,	1650,	1647
109,	8365,	8462,	8968,	8215,	7624,	8368,	8055,	8702,	8372,	8125,	8360,	8425,	8555,	8512,	12.73,	15.13,	14.89,	13.41,	7.08,	14.77,	13.39,	11.99,	7.27,	10.56,	15.02,	13.88,	9.81,	12.34,	1645,	1651
110,	8345,	8408,	8943,	8196,	7599,	8327,	8043,	8680,	8336,	8101,	8333,	8409,	8552,	8528,	12.73,	15.13,	14.89,	13.41,	7.08,	14.77,	13.39,	11.99,	7.27,	10.56,	15.02,	13.88,	9.81,	12.34,	1639,	1654
111,	8344,	8443,	8968,	8198,	7650,	8381,	8036,	8686,	8342,	8125,	8342,	8410,	8591,	8509,	12.73,	15.13,	14.89,	13.41,	7.08,	14.77,	13.39,	11.99,	7.27,	10.56,	15.02,	13.88,	9.81,	12.34,	1637,	1657
112,	8356,	8494,	8988,	8216,	7682,	8412,	8038,	8679,	8364,	8138,	8341,	8416,	8574,	8522,	12.73,	15.13,	14.89,	13.41,	7.08,	14.77,	13.39,	11.99,	7.27,	10.56,	15.02,	13.88,	9.81,	12.34,	1634,	1660
113,	8345,	8474,	8968,	8209,	7657,	8360,	8040,	8673,	8356,	8151,	8331,	8417,	8552,	8522,	12.73,	15.13,	14.89,	13.41,	7.08,	14.77,	13.39,	11.99,	7.27,	10.56,	15.02,	13.88,	9.81,	12.34,	1631,	1662
114,	8320,	8433,	8955,	8198,	7686,	8348,	8022,	8684,	8330,	8182,	8337,	8420,	8599,	8498,	12.73,	15.13,	14.89,	13.41,	7.08,	14.77,	13.39,	11.99,	7.27,	10.56,	15.02,	13.88,	9.81,	12.34,	1631,	1661
115,	8325,	8416,	8949,	8197,	7707,	8385,	8019,	8674,	8327,	8160,	8314,	8407,	8602,	8513,	12.73,	15.13,	14.89,	13.41,	7.08,	14.77,	13.39,	11.99,	7.27,	10.56,	15.02,	13.88,	9.81,	12.34,	1629,	1661
116,	8349,	8454,	8970,	8194,	7682,	8410,	8030,	8689,	8369,	8147,	8314,	8428,	8563,	8497,	12.73,	15.13,	14.89,	13.41,	7.08,	14.77,	13.39,	11.99,	7.27,	10.56,	15.02,	13.88,	9.81,	12.34,	1629,	1655
117,	8364,	8479,	8971,	8193,	7672,	8393,	8037,	8709,	8358,	8169,	8324,	8449,	8560,	8506,	12.73,	15.13,	14.89,	13.41,	7.08,	14.77,	13.39,	11.99,	7.27,	10.56,	15.02,	13.88,	9.81,	12.34,	1626,	1653
118,	8352,	8457,	8943,	8203,	7640,	8360,	8034,	8695,	8329,	8160,	8303,	8426,	8584,	8511,	12.73,	15.13,	14.89,	13.41,	7.08,	14.77,	13.39,	11.99,	7.27,	10.56,	15.02,	13.88,	9.81,	12.34,	1626,	1654
119,	8324,	8440,	8943,	8202,	7633,	8370,	8024,	8682,	8354,	8143,	8292,	8415,	8577,	8477,	12.73,	15.13,	14.89,	13.41,	7.08,	14.77,	13.39,	11.99,	7.27,	10.56,	15.02,	13.88,	9.81,	12.34,	1625,	1656
120,	8323,	8410,	8943,	8181,	7688,	8399,	8024,	8669,	8328,	8148,	8287,	8414,	8529,	8497,	12.73,	15.13,	14.89,	13.41,	7.08,	14.77,	13.39,	11.99,	7.27,	10.56,	15.02,	13.88,	9.81,	12.34,	1625,	1657
121,	8346,	8441,	8957,	8183,	7693,	8403,	8022,	8674,	8297,	8157,	8299,	8440,	8542,	8498,	12.73,	15.13,	14.89,	13.41,	7.08,	14.77,	13.39,	11.99,	7.27,	10.56,	15.02,	13.88,	9.81,	12.34,	1625,	1655
122,	8358,	8497,	8976,	8207,	7648,	8378,	8030,	8690,	8354,	8148,	8315,	8467,	8580,	8504,	12.73,	15.13,	14.89,	13.41,	7.08,	14.77,	13.39,	11.99,	7.27,	10.56,	15.02,	13.88,	9.81,	12.34,	1625,	1653
123,	8344,	8440,	8955,	8209,	7659,	8370,	8038,	8677,	8392,	8153,	8304,	8455,	8563,	8518,	12.73,	15.13,	14.89,	13.41,	7.08,	14.77,	13.39,	11.99,	7.27,	10.56,	15.02,	13.88,	9.81,	12.34,	1626,	1653
124,	8338,	8403,	8966,	8204,	7691,	8392,	8027,	8675,	8363,	8194,	8308,	8464,	8538,	8488,	12.73,	15.13,	14.89,	13.41,	7.08,	14.77,	13.39,	11.99,	7.27,	10.56,	15.02,	13.88,	9.81,	12.34,	1628,	1656
125,	8363,	8453,	8994,	8217,	7702,	8409,	8038,	8687,	8352,	8195,	8314,	8483,	8521,	8517,	12.73,	15.13,	14.89,	13.41,	7.08,	14.77,	13.39,	11.99,	7.27,	10.56,	15.02,	13.88,	9.81,	12.34,	1632,	1657
126,	8387,	8522,	9003,	8230,	7697,	8411,	8050,	8695,	8379,	8177,	8327,	8492,	8542,	8526,	12.73,	15.13,	14.89,	13.41,	7.08,	14.77,	13.39,	11.99,	7.27,	10.56,	15.02,	13.88,	9.81,	12.34,	1634,	1660
127,	8406,	8555,	9022,	8225,	7657,	8388,	8049,	8702,	8372,	8190,	8344,	8511,	8578,	8508,	12.73,	15.13,	14.89,	13.41,	7.08,	14.77,	13.39,	11.99,	7.27,	10.56,	15.02,	13.88,	9.81,	12.34,	1638,	1658
0,	8416,	8455,	9042,	8255,	7732,	8398,	8062,	8731,	8392,	8229,	8342,	8539,	8556,	8527,	12.73,	15.13,	14.89,	13.41,	7.08,	14.77,	13.39,	11.99,	7.27,	10.56,	15.02,	13.88,	9.81,	12.34,	1647,	1655
1,	8423,	8482,	9035,	8254,	7704,	8394,	8064,	8730,	8420,	8218,	8335,	8538,	8566,	8527,	12.73,	15.13,	14.89,	13.41,	7.08,	14.77,	13.39,	11.99,	7.27,	10.56,	15.02,	13.88,	9.81,	12.34,	1650,	1654
2,	8432,	8513,	9040,	8245,	7682,	8402,	8069,	8709,	8379,	8210,	8329,	8531,	8571,	8530,	12.73,	15.13,	14.89,	13.41,	7.08,	14.77,	13.39,	11.99,	7.27,	10.56,	15.02,	13.88,	9.81,	12.34,	1653,	1655
3,	8451,	8528,	9085,	8274,	7731,	8459,	8079,	8735,	8385,	8253,	8369,	8584,	8584,	8534,	12.73,	15.13,	14.89,	13.41,	7.08,	14.77,	13.39,	11.99,	7.27,	10.56,	15.02,	13.88,	9.81,	12.34,	1655,	1653
4,	8493,	8534,	9116,	8284,	7725,	8451,	8106,	8751,	8408,	8258,	8390,	8624,	8583,	8581,	12.73,	15.13,	14.89,	13.41,	7.08,	14.77,	13.39,	11.99,	7.27,	10.56,	15.02,	13.88,	9.81,	12.34,	1656,	1654
5,	8498,	8541,	9126,	8287,	7690,	8404,	8098,	8730,	8411,	8247,	8392,	8615,	8594,	8555,	12.73,	15.13,	14.89,	13.41,	7.08,	14.77,	13.39,	11.99,	7.27,	10.56,	15.02,	13.88,	9.81,	12.34,	1657,	1654
6,	8454,	8516,	9102,	8307,	7699,	8408,	8066,	8699,	8399,	8224,	8372,	8590,	8601,	8530,	12.73,	15.13,	14.89,	13.41,	7.08,	14.77,	13.39,	11.99,	7.27,	10.56,	15.02,	13.88,	9.81,	12.34,	1658,	1657
7,	8458,	8524,	9101,	8309,	7693,	8401,	8063,	8700,	8408,	8200,	8357,	8596,	8574,	8558,	12.73,	15.13,	14.89,	13.41,	7.08,	14.77,	13.39,	11.99,	7.27,	10.56,	15.02,	13.88,	9.81,	12.34,	1661,	1658
8,	8494,	8597,	9153,	8307,	7689,	8382,	8071,	8744,	8416,	8258,	8405,	8634,	8575,	8548,	12.73,	15.13,	14.89,	13.41,	7.08,	14.77,	13.39,	11.99,	7.27,	10.56,	15.02,	13.88,	9.81,	12.34,	1662,	1658
9,	8465,	8568,	9116,	8306,	7698,	8387,	8068,	8734,	8348,	8268,	8393,	8603,	8572,	8549,	12.73,	15.13,	14.89,	13.41,	7.08,	14.77,	13.39,	11.99,	7.27,	10.56,	15.02,	13.88,	9.81,	12.34,	1664,	1654
10,	8414,	8481,	9053,	8303,	7679,	8393,	8068,	8711,	8354,	8210,	8339,	8566,	8548,	8537,	12.73,	15.13,	14.89,	13.41,	7.08,	14.77,	13.39,	11.99,	7.27,	10.56,	15.02,	13.88,	9.81,	12.34,	1664,	1652
11,	8433,	8515,	9074,	8311,	7626,	8384,	8088,	8734,	8420,	8223,	8365,	8587,	8558,	8531,	12.73,	15.13,	14.89,	13.41,	7.08,	14.77,	13.39,	11.99,	7.27,	10.56,	15.02,	13.88,	9.81,	12.34,	1667,	1649
12,	8456,	8587,	9082,	8301,	7623,	8395,	8094,	8735,	8399,	8237,	8387,	8578,	8578,	8548,	12.73,	15.13,	14.89,	13.41,	7.08,	14.77,	13.39,	11.99,	7.27,	10.56,	15.02,	13.88,	9.81,	12.34,	1668,	1645
13,	8417,	8547,	9057,	8275,	7686,	8425,	8071,	8717,	8367,	8202,	8356,	8550,	8568,	8518,	12.73,	15.13,	14.89,	13.41,	7.08,	14.77,	13.39,	11.99,	7.27,	10.56,	15.02,	13.88,	9.81,	12.34,	1669,	1642
14,	8390,	8446,	9030,	8260,	7687,	8407,	8065,	8695,	8352,	8182,	8312,	8524,	8511,	8522,	12.73,	15.13,	14.89,	13.41,	7.08,	14.77,	13.39,	11.99,	7.27,	10.56,	15.02,	13.88,	9.81,	12.34,	1670,	1640
15,	8390,	8437,	9016,	8259,	7643,	8370,	8058,	8682,	8353,	8174,	8307,	8512,	8476,	8524,	12.73,	15.13,	14.89,	13.41,	7.08,	14.77,	13.39,	11.99,	7.27,	10.56,	15.02,	13.88,	9.81,	12.34,	1670,	1648
16,	8391,	8511,	9023,	8262,	7643,	8355,	8041,	8692,	8395,	8167,	8328,	8526,	8503,	8506,	12.73,	15.13,	14.89,	13.41,	7.08,	14.77,	13.39,	11.99,	7.27,	10.56,	15.02,	13.88,	9.81,	12.34,	1671,	1656
17,	8384,	8503,	9005,	8252,	7616,	8351,	8041,	8682,	8380,	8177,	8311,	8506,	8507,	8528,	12.73,	15.13,	14.89,	13.41,	7.08,	14.77,	13.39,	11.99,	7.27,	10.56,	15.02,	13.88,	9.81,	12.34,	1672,	1661
18,	8348,	8447,	8981,	8236,	7582,	8361,	8027,	8661,	8339,	8182,	8297,	8475,	8488,	8498,	12.73,	15.13,	14.89,	13.41,	7.08,	14.77,	13.39,	11.99,	7.27,	10.56,	15.02,	13.88,	9.81,	12.34,	1674,	1658
19,	8333,	8424,	8969,	8233,	7629,	8378,	8022,	8656,	8338,	8156,	8299,	8468,	8481,	8492,	12.73,	15.13,	14.89,	13.41,	7.08,	14.77,	13.39,	11.99,	7.27,	10.56,	15.02,	13.88,	9.81,	12.34,	1676,	1652
20,	8352,	8442,	8963,	8239,	7640,	8370,	8033,	8670,	8310,	8187,	8297,	8468,	8481,	8515,	12.73,	15.13,	14.89,	13.41,	7.08,	14.77,	13.39,	11.99,	7.27,	10.56,	15.02,	13.88,	9.81,	12.34,	1678,	1645
21,	8354,	8469,	8969,	8235,	7593,	8335,	8021,	8682,	8309,	8214,	8292,	8477,	8484,	8490,	12.73,	15.13,	14.89,	13.41,	7.08,	14.77,	13.39,	11.99,	7.27,	10.56,	15.02,	13.88,	9.81,	12.34,	1678,	1646
22,	8354,	8448,	8963,	8224,	7590,	8314,	8024,	8666,	8360,	8149,	8273,	8471,	8469,	8510,	12.73,	15.13,	14.89,	13.41,	7.08,	14.77,	13.39,	11.99,	7.27,	10.56,	15.02,	13.88,	9.81,	12.34,	1677,	1652
23,	8360,	8446,	8970,	8228,	7545,	8341,	8031,	8658,	8384,	8145,	8283,	8476,	8452,	8507,	12.73,	15.13,	14.89,	13.41,	7.08,	14.77,	13.39,	11.99,	7.27,	10.56,	15.02,	13.88,	9.81,	12.34,	1676,	1656
24,	8357,	8478,	8985,	8237,	7502,	8385,	8031,	8662,	8351,	8202,	8295,	8484,	8443,	8494,	12.73,	15.13,	14.89,	13.41,	7.08,	14.77,	13.39,	11.99,	7.27,	10.56,	15.02,	13.88,	9.81,	12.34,	1676,	1652
25,	8344,	8451,	8969,	8240,	7588,	8383,	8032,	8648,	8303,	8190,	8265,	8466,	8434,	8512,	12.73,	15.13,	14.89,	13.41,	7.08,	14.77,	13.39,	11.99,	7.27,	10.56,	15.02,	13.88,	9.81,	12.34,	1676,	1647
26,	8331,	8415,	8971,	8236,	7671,	8361,	8027,	8649,	8319,	8172,	8274,	8481,	8456,	8492,	12.73,	15.13,	14.89,	13.41,	7.08,	14.77,	13.39,	11.99,	7.27,	10.56,	15.02,	13.88,	9.81,	12.34,	1675,	1640
27,	8336,	8434,	8980,	8230,	7675,	8365,	8031,	8662,	8387,	8158,	8294,	8506,	8464,	8509,	12.73,	15.13,	14.89,	13.41,	7.08,	14.77,	13.39,	11.99,	7.27,	10.56,	15.02,	13.88,	9.81,	12.34,	1673,	1637
28,	8344,	8451,	8988,	8254,	7675,	8385,	8026,	8672,	8349,	8188,	8282,	8505,	8438,	8509,	12.73,	15.13,	14.89,	13.41,	7.08,	14.77,	13.39,	11.99,	7.27,	10.56,	15.02,	13.88,	9.81,	12.34,	1674,	1636
29,	8355,	8472,	9000,	8274,	7568,	8350,	8011,	8670,	8244,	8266,	8279,	8506,	8447,	8491,	12.73,	15.13,	14.89,	13.41,	7.08,	14.77,	13.39,	11.99,	7.27,	10.56,	15.02,	13.88,	9.81,	12.34,	1672,	1643
30,	8369,	8488,	8987,	8226,	7488,	8298,	8010,	8640,	8302,	8228,	8276,	8496,	8458,	8516,	12.73,	15.13,	14.89,	13.41,	7.08,	14.77,	13.39,	11.99,	7.27,	10.56,	15.02,	13.88,	9.81,	12.34,	1671,	1652
31,	8372,	8463,	9006,	8207,	7639,	8356,	8015,	8660,	8445,	8181,	8294,	8513,	8459,	8501,	12.73,	15.13,	14.89,	13.41,	7.08,	14.77,	13.39,	11.99,	7.27,	10.56,	15.02,	13.88,	9.81,	12.34,	1668,	1659
32,	8368,	8407,	9019,	8244,	7765,	8427,	8017,	8688,	8423,	8230,	8292,	8518,	8445,	8499,	12.73,	15.13,	14.89,	13.41,	7.08,	14.77,	13.39,	11.99,	7.27,	10.56,	15.02,	13.88,	9.81,	12.34,	1665,	1664
33,	8349,	8412,	8983,	8242,	7703,	8389,	8004,	8662,	8363,	8227,	8262,	8494,	8434,	8505,	12.73,	15.13,	14.89,	13.41,	7.08,	14.77,	13.39,	11.99,	7.27,	10.56,	15.02,	13.88,	9.81,	12.34,	1663,	1659
34,	8343,	8485,	8988,	8210,	7662,	8357,	8007,	8658,	8418,	8201,	8274,	8510,	8456,	8491,	12.73,	15.13,	14.89,	13.41,	7.08,	14.77,	13.39,	11.99,	7.27,	10.56,	15.02,	13.88,	9.81,	12.34,	1658,	1653
35,	8357,	8478,	9006,	8209,	7693,	8392,	8034,	8667,	8404,	8237,	8275,	8520,	8450,	8517,	12.73,	15.13,	14.89,	13.41,	7.08,	14.77,	13.39,	11.99,	7.27,	10.56,	15.02,	13.88,	9.81,	12.34,	1655,	1647
36,	8367,	8457,	9017,	8234,	7706,	8407,	8039,	8685,	8371,	8278,	8284,	8531,	8461,	8509,	12.73,	15.13,	14.89,	13.41,	7.08,	14.77,	13.39,	11.99,	7.27,	10.56,	15.02,	13.88,	9.81,	12.34,	1652,	1646
37,	8387,	8478,	9029,	8232,	7710,	8409,	8043,	8709,	8411,	8262,	8314,	8555,	8494,	8509,	12.73,	15.13,	14.89,	13.41,	7.08,	14.77,	13.39,	11.99,	7.27,	10.56,	15.02,	13.88,	9.81,	12.34,	1648,	1649
38,	8420,	8490,	9033,	8223,	7722,	8440,	8062,	8704,	8430,	8252,	8308,	8559,	8469,	8536,	12.73,	15.13,	14.89,	13.41,	7.08,	14.77,	13.39,	11.99,	7.27,	10.56,	15.02,	13.88,	9.81,	12.34,	1644,	1654
39,	8435,	8525,	9063,	8262,	7748,	8462,	8065,	8720,	8450,	8291,	8315,	8570,	8446,	8517,	12.73,	15.13,	14.89,	13.41,	7.08,	14.77,	13.39,	11.99,	7.27,	10.56,	15.02,	13.88,	9.81,	12.34,	1642,	1657
40,	8439,	8551,	9080,	8290,	7750,	8453,	8068,	8724,	8433,	8302,	8341,	8577,	8476,	8532,	12.73,	15.13,	14.89,	13.41,	7.08,	14.77,	13.39,	11.99,	7.27,	10.56,	15.02,	13.88,	9.81,	12.34,	1636,	1660
41,	8433,	8541,	9074,	8262,	7722,	8454,	8066,	8705,	8406,	8295,	8355,	8584,	8513,	8528,	12.73,	15.13,	14.89,	13.41,	7.08,	14.77,	13.39,	11.99,	7.27,	10.56,	15.02,	13.88,	9.81,	12.34,	1634,	1663
42,	8410,	8514,	9056,	8255,	7717,	8454,	8054,	8701,	8405,	8302,	8348,	8588,	8511,	8508,	12.73,	15.13,	14.89,	13.41,	7.08,	14.77,	13.39,	11.99,	7.27,	10.56,	15.02,	13.88,	9.81,	12.34,	1631,	1664
43,	8395,	8488,	9033,	8285,	7752,	8457,	8057,	8690,	8432,	8284,	8328,	8566,	8481,	8526,	12.73,	15.13,	14.89,	13.41,	7.08,	14.77,	13.39,	11.99,	7.27,	10.56,	15.02,	13.88,	9.81,	12.34,	1628,	1668
44,	8411,	8513,	9058,	8276,	7759,	8498,	8064,	8700,	8470,	8304,	8347,	8575,	8492,	8510,	12.73,	15.13,	14.89,	13.41,	7.08,	14.77,	13.39,	11.99,	7.27,	10.56,	15.02,	13.88,	9.81,	12.34,	1627,	1667
45,	8438,	8541,	9074,	8236,	7710,	8458,	8061,	8713,	8432,	8333,	8351,	8580,	8510,	8521,	12.73,	15.13,	14.89,	13.41,	7.08,	14.77,	13.39,	11.99,	7.27,	10.56,	15.02,	13.88,	9.81,	12.34,	1624,	1668
46,	8419,	8517,	9055,	8247,	7734,	8402,	8049,	8705,	8399,	8296,	8327,	8552,	8487,	8519,	12.73,	15.13,	14.89,	13.41,	7.08,	14.77,	13.39,	11.99,	7.27,	10.56,	15.02,	13.88,	9.81,	12.34,	1625,	1665
47,	8390,	8492,	9057,	8293,	7771,	8455,	8047,	8697,	8440,	8254,	8303,	8540,	8452,	8485,	12.73,	15.13,	14.89,	13.41,	7.08,	14.77,	13.39,	11.99,	7.27,	10.56,	15.02,	13.88,	9.81,	12.34,	1624,	1663
48,	8387,	8473,	9036,	8277,	7712,	8457,	8041,	8676,	8441,	8244,	8260,	8511,	8419,	8501,	12.73,	15.13,	14.89,	13.41,	7.08,	14.77,	13.39,	11.99,	7.27,	10.56,	15.02,	13.88,	9.81,	12.34,	1625,	1662
49,	8365,	8475,	9001,	8247,	7693,	8408,	8009,	8662,	8382,	8236,	8234,	8481,	8412,	8479,	12.73,	15.13,	14.89,	13.41,	7.08,	14.77,	13.39,	11.99,	7.27,	10.56,	15.02,	13.88,	9.81,	12.34,	1627,	1661
50,	8356,	8499,	9002,	8261,	7719,	8428,	8017,	8660,	8370,	8202,	8227,	8482,	8409,	8472,	12.73,	15.13,	14.89,	13.41,	7.08,	14.77,	13.39,	11.99,	7.27,	10.56,	15.02,	13.88,	9.81,	12.34,	1630,	1662
51,	8378,	8495,	9023,	8271,	7701,	8465,	8045,	8671,	8423,	8220,	8238,	8497,	8411,	8498,	12.73,	15.13,	14.89,	13.41,	7.08,	14.77,	13.39,	11.99,	7.27,	10.56,	15.02,	13.88,	9.81,	12.34,	1631,	1658
52,	8377,	8465,	9033,	8265,	7702,	8457,	8035,	8698,	8419,	8296,	8281,	8518,	8454,	8479,	12.73,	15.13,	14.89,	13.41,	7.08,	14.77,	13.39,	11.99,	7.27,	10.56,	15.02,	13.88,	9.81,	12.34,	1635,	1656
53,	8366,	8441,	9010,	8261,	7699,	8426,	8033,	8695,	8367,	8274,	8269,	8503,	8463,	8493,	12.73,	15.13,	14.89,	13.41,	7.08,	14.77,	13.39,	11.99,	7.27,	10.56,	15.02,	13.88,	9.81,	12.34,	1638,	1653
54,	8355,	8487,	9003,	8263,	7664,	8413,	8027,	8684,	8410,	8200,	8229,	8482,	8428,	8487,	12.73,	15.13,	14.89,	13.41,	7.08,	14.77,	13.39,	11.99,	7.27,	10.56,	15.02,	13.88,	9.81,	12.34,	1641,	1656
55,	8336,	8517,	8998,	8262,	7678,	8435,	8018,	8689,	8431,	8209,	8226,	8470,	8403,	8473,	12.73,	15.13,	14.89,	13.41,	7.08,	14.77,	13.39,	11.99,	7.27,	10.56,	15.02,	13.88,	9.81,	12.34,	1646,	1654
56,	8322,	8451,	8954,	8246,	7681,	8452,	8031,	8675,	8366,	8230,	8209,	8433,	8377,	8484,	12.73,	15.13,	14.89,	13.41,	7.08,	14.77,	13.39,	11.99,	7.27,	10.56,	15.02,	13.88,	9.81,	12.34,	1649,	1651
57,	8314,	8425,	8938,	8228,	7627,	8414,	8011,	8659,	8367,	8205,	8190,	8414,	8374,	8449,	12.73,	15.13,	14.89,	13.41,	7.08,	14.77,	13.39,	11.99,	7.27,	10.56,	15.02,	13.88,	9.81,	12.34,	1653,	1644
58,	8320,	8456,	8939,	8214,	7607,	8388,	7995,	8652,	8380,	8180,	8188,	8407,	8384,	8457,	12.73,	15.13,	14.89,	13.41,	7.08,	14.77,	13.39,	11.99,	7.27,	10.56,	15.02,	13.88,	9.81,	12.34,	1654,	1640
59,	8321,	8468,	8940,	8219,	7604,	8420,	8018,	8665,	8363,	8204,	8210,	8407,	8404,	8467,	12.73,	15.13,	14.89,	13.41,	7.08,	14.77,	13.39,	11.99,	7.27,	10.56,	15.02,	13.88,	9.81,	12.34,	1656,	1640
60,	8307,	8456,	8950,	8232,	7581,	8426,	8023,	8670,	8375,	8242,	8228,	8422,	8408,	8454,	12.73,	15.13,	14.89,	13.41,	7.08,	14.77,	13.39,	11.99,	7.27,	10.56,	15.02,	13.88,	9.81,	12.34,	1656,	1649
61,	8307,	8437,	8935,	8240,	7584,	8407,	8004,	8631,	8355,	8224,	8199,	8408,	8372,	8473,	12.73,	15.13,	14.89,	13.41,	7.08,	14.77,	13.39,	11.99,	7.27,	10.56,	15.02,	13.88,	9.81,	12.34,	1657,	1668
62,	8312,	8448,	8941,	8244,	7593,	8440,	7999,	8624,	8364,	8190,	8201,	8406,	8379,	8454,	12.73,	15.13,	14.89,	13.41,	7.08,	14.77,	13.39,	11.99,	7.27,	10.56,	15.02,	13.88,	9.81,	12.34,	1656,	1686
63,	8305,	8428,	8954,	8234,	7567,	8456,	8011,	8644,	8410,	8164,	8213,	8414,	8386,	8461,	12.73,	15.13,	14.89,	13.41,	7.08,	14.77,	13.39,	11.99,	7.27,	10.56,	15.02,	13.88,	9.81,	12.34,	1657,	1694
64,	8299,	8407,	8945,	8228,	7539,	8405,	8003,	8640,	8389,	8164,	8202,	8408,	8363,	8475,	12.73,	15.13,	14.89,	13.41,	7.08,	14.77,	13.39,	11.99,	7.27,	10.56,	15.02,	13.88,	9.81,	12.34,	1657,	1686
65,	8298,	8470,	8955,	8232,	7539,	8378,	7977,	8631,	8359,	8178,	8218,	8421,	8392,	8444,	12.73,	15.13,	14.89,	13.41,	7.08,	14.77,	13.39,	11.99,	7.27,	10.56,	15.02,	13.88,	9.81,	12.34,	1658,	1672
66,	8298,	8488,	8951,	8202,	7549,	8384,	7971,	8604,	8346,	8137,	8208,	8415,	8382,	8464,	12.73,	15.13,	14.89,	13.41,	7.08,	14.77,	13.39,	11.99,	7.27,	10.56,	15.02,	13.88,	9.81,	12.34,	1661,	1653
67,	8306,	8439,	8962,	8198,	7582,	8411,	7973,	8606,	8333,	8141,	8206,	8415,	8331,	8465,	12.73,	15.13,	14.89,	13.41,	7.08,	14.77,	13.39,	11.99,	7.27,	10.56,	15.02,	13.88,	9.81,	12.34,	1662,	1643
68,	8333,	8421,	8992,	8244,	7603,	8437,	7986,	8632,	8346,	8185,	8241,	8439,	8343,	8459,	12.73,	15.13,	14.89,	13.41,	7.08,	14.77,	13.39,	11.99,	7.27,	10.56,	15.02,	13.88,	9.81,	12.34,	1662,	1641
69,	8356,	8450,	8987,	8238,	7550,	8402,	7992,	8626,	8355,	8178,	8238,	8444,	8363,	8485,	12.73,	15.13,	14.89,	13.41,	7.08,	14.77,	13.39,	11.99,	7.27,	10.56,	15.02,	13.88,	9.81,	12.34,	1662,	1646
70,	8371,	8497,	9013,	8218,	7525,	8375,	7990,	8649,	8351,	8212,	8248,	8479,	8371,	8480,	12.73,	15.13,	14.89,	13.41,	7.08,	14.77,	13.39,	11.99,	7.27,	10.56,	15.02,	13.88,	9.81,	12.34,	1662,	1656
71,	8395,	8507,	9057,	8245,	7577,	8410,	8020,	8685,	8367,	8233,	8279,	8527,	8395,	8500,	12.73,	15.13,	14.89,	13.41,	7.08,	14.77,	13.39,	11.99,	7.27,	10.56,	15.02,	13.88,	9.81,	12.34,	1664,	1663
72,	8388,	8504,	9061,	8250,	7591,	8464,	8043,	8691,	8411,	8209,	8299,	8550,	8423,	8495,	12.73,	15.13,	14.89,	13.41,	7.08,	14.77,	13.39,	11.99,	7.27,	10.56,	15.02,	13.88,	9.81,	12.34,	1665,	1668
73,	8362,	8508,	9044,	8229,	7548,	8459,	8039,	8691,	8383,	8231,	8309,	8562,	8445,	8469,	12.73,	15.13,	14.89,	13.41,	7.08,	14.77,	13.39,	11.99,	7.27,	10.56,	15.02,	13.88,	9.81,	12.34,	1666,	1669
74,	8354,	8476,	9014,	8224,	7549,	8401,	8022,	8668,	8320,	8240,	8285,	8542,	8443,	8481,	12.73,	15.13,	14.89,	13.41,	7.08,	14.77,	13.39,	11.99,	7.27,	10.56,	15.02,	13.88,	9.81,	12.34,	1667,	1671
75,	8347,	8451,	9008,	8219,	7563,	8402,	8005,	8665,	8372,	8225,	8268,	8527,	8425,	8454,	12.73,	15.13,	14.89,	13.41,	7.08,	14.77,	13.39,	11.99,	7.27,	10.56,	15.02,	13.88,	9.81,	12.34,	1668,	1670
76,	8359,	8470,	9010,	8183,	7523,	8430,	8021,	8679,	8402,	8229,	8264,	8520,	8398,	8462,	12.73,	15.13,	14.89,	13.41,	7.08,	14.77,	13.39,	11.99,	7.27,	10.56,	15.02,	13.88,	9.81,	12.34,	1671,	1666
77,	8373,	8488,	8994,	8158,	7534,	8415,	8033,	8664,	8351,	8216,	8255,	8501,	8392,	8476,	12.73,	15.13,	14.89,	13.41,	7.08,	14.77,	13.39,	11.99,	7.27,	10.56,	15.02,	13.88,	9.81,	12.34,	1672,	1661
78,	8359,	8459,	8982,	8180,	7605,	8429,	8022,	8667,	8352,	8208,	8248,	8492,	8408,	8447,	12.73,	15.13,	14.89,	13.41,	7.08,	14.77,	13.39,	11.99,	7.27,	10.56,	15.02,	13.88,	9.81,	12.34,	1673,	1659
79,	8372,	8440,	8982,	8187,	7583,	8444,	8033,	8687,	8381,	8235,	8235,	8484,	8393,	8468,	12.73,	15.13,	14.89,	13.41,	7.08,	14.77,	13.39,	11.99,	7.27,	10.56,	15.02,	13.88,	9.81,	12.34,	1674,	1659
80,	8396,	8501,	9008,	8156,	7517,	8411,	8033,	8691,	8382,	8263,	8256,	8501,	8405,	8460,	12.73,	15.13,	14.89,	13.41,	7.08,	14.77,	13.39,	11.99,	7.27,	10.56,	15.02,	13.88,	9.81,	12.34,	1673,	1658
81,	8380,	8505,	9005,	8149,	7528,	8413,	8014,	8676,	8369,	8222,	8267,	8511,	8430,	8452,	12.73,	15.13,	14.89,	13.41,	7.08,	14.77,	13.39,	11.99,	7.27,	10.56,	15.02,	13.88,	9.81,	12.34,	1672,	1656
82,	8361,	8432,	8978,	8183,	7544,	8434,	8014,	8668,	8381,	8181,	8244,	8492,	8395,	8468,	12.73,	15.13,	14.89,	13.41,	7.08,	14.77,	13.39,	11.99,	7.27,	10.56,	15.02,	13.88,	9.81,	12.34,	1670,	1656
83,	8363,	8447,	8996,	8189,	7516,	8425,	8017,	8683,	8413,	8230,	8254,	8504,	8375,	8439,	12.73,	15.13,	14.89,	13.41,	7.08,	14.77,	13.39,	11.99,	7.27,	10.56,	15.02,	13.88,	9.81,	12.34,	1668,	1656
84,	8367,	8498,	9003,	8165,	7520,	8406,	8025,	8691,	8393,	8248,	8268,	8509,	8401,	8453,	12.73,	15.13,	14.89,	13.41,	7.08,	14.77,	13.39,	11.99,	7.27,	10.56,	15.02,	13.88,	9.81,	12.34,	1663,	1661
85,	8358,	8489,	8989,	8181,	7579,	8424,	8030,	8697,	8363,	8221,	8273,	8504,	8421,	8462,	12.73,	15.13,	14.89,	13.41,	7.08,	14.77,	13.39,	11.99,	7.27,	10.56,	15.02,	13.88,	9.81,	12.34,	1660,	1661
86,	8352,	8472,	8993,	8194,	7587,	8455,	8030,	8693,	8374,	8210,	8277,	8506,	8400,	8444,	12.73,	15.13,	14.89,	13.41,	7.08,	14.77,	13.39,	11.99,	7.27,	10.56,	15.02,	13.88,	9.81,	12.34,	1653,	1660
87,	8349,	8457,	8976,	8165,	7534,	8424,	8026,	8670,	8381,	8212,	8253,	8482,	8357,	8454,	12.73,	15.13,	14.89,	13.41,	7.08,	14.77,	13.39,	11.99,	7.27,	10.56,	15.02,	13.88,	9.81,	12.34,	1651,	1657
88,	8344,	8464,	8976,	8161,	7542,	8385,	8013,	8690,	8391,	8243,	8261,	8486,	8369,	8440,	12.73,	15.13,	14.89,	13.41,	7.08,	14.77,	13.39,	11.99,	7.27,	10.56,	15.02,	13.88,	9.81,	12.34,	1647,	1653
89,	8348,	8474,	8984,	8162,	7591,	8412,	8024,	8711,	8376,	8249,	8289,	8504,	8418,	8455,	12.73,	15.13,	14.89,	13.41,	7.08,	14.77,	13.39,	11.99,	7.27,	10.56,	15.02,	13.88,	9.81,	12.34,	1645,	1654
90,	8353,	8484,	8983,	8152,	7601,	8466,	8038,	8709,	8348,	8241,	8292,	8501,	8444,	8456,	12.73,	15.13,	14.89,	13.41,	7.08,	14.77,	13.39,	11.99,	7.27,	10.56,	15.02,	13.88,	9.81,	12.34,	1641,	1655
91,	8372,	8528,	9010,	8184,	7572,	8459,	8042,	8726,	8375,	8278,	8311,	8517,	8452,	8438,	12.73,	15.13,	14.89,	13.41,	7.08,	14.77,	13.39,	11.99,	7.27,	10.56,	15.02,	13.88,	9.81,	12.34,	1639,	1660
92,	8380,	8501,	9006,	8186,	7538,	8420,	8045,	8719,	8394,	8274,	8311,	8517,	8436,	8468,	12.73,	15.13,	14.89,	13.41,	7.08,	14.77,	13.39,	11.99,	7.27,	10.56,	15.02,	13.88,	9.81,	12.34,	1637,	1662
93,	8348,	8440,	8978,	8139,	7569,	8442,	8023,	8704,	8361,	8219,	8299,	8500,	8433,	8444,	12.73,	15.13,	14.89,	13.41,	7.08,	14.77,	13.39,	11.99,	7.27,	10.56,	15.02,	13.88,	9.81,	12.34,	1634,	1666
94,	8339,	8448,	8968,	8144,	7621,	8454,	8022,	8702,	8303,	8215,	8291,	8492,	8443,	8431,	12.73,	15.13,	14.89,	13.41,	7.08,	14.77,	13.39,	11.99,	7.27,	10.56,	15.02,	13.88,	9.81,	12.34,	1633,	1664
95,	8369,	8492,	8983,	8185,	7585,	8411,	8045,	8705,	8305,	8273,	8299,	8498,	8430,	8458,	12.73,	15.13,	14.89,	13.41,	7.08,	14.77,	13.39,	11.99,	7.27,	10.56,	15.02,	13.88,	9.81,	12.34,	1630,	1663
96,	8380,	8521,	9010,	8185,	7509,	8416,	8033,	8723,	8365,	8311,	8324,	8515,	8421,	8443,	12.73,	15.13,	14.89,	13.41,	7.08,	14.77,	13.39,	11.99,	7.27,	10.56,	15.02,	13.88,	9.81,	12.34,	1630,	1662
97,	8372,	8496,	8997,	8144,	7497,	8434,	8010,	8701,	8353,	8260,	8302,	8492,	8425,	8444,	12.73,	15.13,	14.89,	13.41,	7.08,	14.77,	13.39,	11.99,	7.27,	10.56,	15.02,	13.88,	9.81,	12.34,	1626,	1664
98,	8352,	8472,	8975,	8129,	7568,	8402,	7995,	8667,	8368,	8206,	8288,	8472,	8429,	8427,	12.73,	15.13,	14.89,	13.41,	7.08,	14.77,	13.39,	11.99,	7.27,	10.56,	15.02,	13.88,	9.81,	12.34,	1624,	1666
99,	8343,	8469,	8976,	8157,	7634,	8414,	8004,	8682,	8420,	8228,	8319,	8491,	8428,	8426,	12.73,	15.13,	14.89,	13.41,	7.08,	14.77,	13.39,	11.99,	7.27,	10.56,	15.02,	13.88,	9.81,	12.34,	1619,	1664
100,	8365,	8470,	8985,	8181,	7616,	8470,	8040,	8718,	8402,	8272,	8339,	8503,	8451,	8465,	12.73,	15.13,	14.89,	13.41,	7.08,	14.77,	13.39,	11.99,	7.27,	10.56,	15.02,	13.88,	9.81,	12.34,	1616,	1663
101,	8375,	8512,	9006,	8175,	7559,	8454,	8052,	8740,	8378,	8291,	8354,	8512,	8502,	8448,	12.73,	15.13,	14.89,	13.41,	7.08,	14.77,	13.39,	11.99,	7.27,	10.56,	15.02,	13.88,	9.81,	12.34,	1614,	1659
102,	8365,	8550,	8999,	8151,	7542,	8405,	8043,	8724,	8350,	8271,	8338,	8502,	8479,	8446,	12.73,	15.13,	14.89,	13.41,	7.08,	14.77,	13.39,	11.99,	7.27,	10.56,	15.02,	13.88,	9.81,	12.34,	1611,	1657
103,	8349,	8509,	8978,	8134,	7576,	8421,	8023,	8697,	8334,	8258,	8317,	8490,	8430,	8441,	12.73,	15.13,	14.89,	13.41,	7.08,	14.77,	13.39,	11.99,	7.27,	10.56,	15.02,	13.88,	9.81,	12.34,	1609,	1661
104,	8342,	8460,	8991,	8134,	7578,	8437,	8013,	8684,	8366,	8256,	8320,	8496,	8442,	8424,	12.73,	15.13,	14.89,	13.41,	7.08,	14.77,	13.39,	11.99,	7.27,	10.56,	15.02,	13.88,	9.81,	12.34,	1610,	1664
105,	8358,	8491,	9010,	8150,	7552,	8410,	8033,	8678,	8383,	8238,	8323,	8497,	8454,	8449,	12.73,	15.13,	14.89,	13.41,	7.08,	14.77,	13.39,	11.99,	7.27,	10.56,	15.02,	13.88,	9.81,	12.34,	1611,	1668
106,	8381,	8551,	9043,	8158,	7587,	8436,	8053,	8715,	8406,	8269,	8368,	8527,	8481,	8441,	12.73,	15.13,	14.89,	13.41,	7.08,	14.77,	13.39,	11.99,	7.27,	10.56,	15.02,	13.88,	9.81,	12.34,	1613,	1671
107,	8398,	8539,	9050,	8137,	7615,	8476,	8061,	8734,	8415,	8292,	8380,	8543,	8479,	8452,	12.73,	15.13,	14.89,	13.41,	7.08,	14.77,	13.39,	11.99,	7.27,	10.56,	15.02,	13.88,	9.81,	12.34,	1617,	1672
108,	8390,	8513,	9022,	8138,	7583,	8446,	8048,	8696,	8355,	8258,	8319,	8511,	8446,	8455,	12.73,	15.13,	14.89,	13.41,	7.08,	14.77,	13.39,	11.99,	7.27,	10.56,	15.02,	13.88,	9.81,	12.34,	1617,	1675
109,	8384,	8539,	9038,	8148,	7574,	8416,	8030,	8694,	8332,	8278,	8323,	8520,	8484,	8423,	12.73,	15.13,	14.89,	13.41,	7.08,	14.77,	13.39,	11.99,	7.27,	10.56,	15.02,	13.88,	9.81,	12.34,	1619,	1674
110,	8403,	8533,	9050,	8120,	7571,	8429,	8045,	8715,	8372,	8295,	8355,	8531,	8501,	8451,	12.73,	15.13,	14.89,	13.41,	7.08,	14.77,	13.39,	11.99,	7.27,	10.56,	15.02,	13.88,	9.81,	12.34,	1621,	1669
111,	8396,	8539,	9042,	8131,	7534,	8430,	8051,	8722,	8378,	8265,	8346,	8513,	8465,	8444,	12.73,	15.13,	14.89,	13.41,	7.08,	14.77,	13.39,	11.99,	7.27,	10.56,	15.02,	13.88,	9.81,	12.34,	1623,	1667
112,	8386,	8564,	9044,	8174,	7515,	8397,	8043,	8727,	8350,	8245,	8335,	8516,	8454,	8430,	12.73,	15.13,	14.89,	13.41,	7.08,	14.77,	13.39,	11.99,	7.27,	10.56,	15.02,	13.88,	9.81,	12.34,	1627,	1663
113,	8414,	8533,	9050,	8178,	7487,	8386,	8053,	8737,	8321,	8262,	8348,	8532,	8454,	8452,	12.73,	15.13,	14.89,	13.41,	7.08,	14.77,	13.39,	11.99,	7.27,	10.56,	15.02,	13.88,	9.81,	12.34,	1629,	1665
114,	8429,	8552,	9079,	8163,	7448,	8417,	8063,	8765,	8321,	8318,	8383,	8553,	8468,	8438,	12.73,	15.13,	14.89,	13.41,	7.08,	14.77,	13.39,	11.99,	7.27,	10.56,	15.02,	13.88,	9.81,	12.34,	1635,	1668
115,	8425,	8595,	9085,	8138,	7472,	8405,	8059,	8747,	8354,	8307,	8382,	8542,	8504,	8453,	12.73,	15.13,	14.89,	13.41,	7.08,	14.77,	13.39,	11.99,	7.27,	10.56,	15.02,	13.88,	9.81,	12.34,	1639,	1673
116,	8414,	8563,	9071,	8145,	7543,	8393,	8036,	8711,	8410,	8252,	8384,	8533,	8520,	8449,	12.73,	15.13,	14.89,	13.41,	7.08,	14.77,	13.39,	11.99,	7.27,	10.56,	15.02,	13.88,	9.81,	12.34,	1644,	1679
117,	8411,	8532,	9088,	8205,	7568,	8439,	8032,	8725,	8410,	8275,	8412,	8565,	8496,	8439,	12.73,	15.13,	14.89,	13.41,	7.08,	14.77,	13.39,	11.99,	7.27,	10.56,	15.02,	13.88,	9.81,	12.34,	1649,	1683
118,	8430,	8578,	9107,	8202,	7511,	8421,	8047,	8732,	8338,	8305,	8404,	8569,	8478,	8468,	12.73,	15.13,	14.89,	13.41,	7.08,	14.77,	13.39,	11.99,	7.27,	10.56,	15.02,	13.88,	9.81,	12.34,	1656,	1689
119,	8441,	8667,	9129,	8162,	7483,	8369,	8044,	8737,	8339,	8300,	8422,	8567,	8531,	8442,	12.73,	15.13,	14.89,	13.41,	7.08,	14.77,	13.39,	11.99,	7.27,	10.56,	15.02,	13.88,	9.81,	12.34,	1660,	1691
120,	8441,	8653,	9129,	8202,	7514,	8415,	8065,	8762,	8395,	8308,	8458,	8575,	8574,	8451,	12.73,	15.13,	14.89,	13.41,	7.08,	14.77,	13.39,	11.99,	7.27,	10.56,	15.02,	13.88,	9.81,	12.34,	1664,	1686
121,	8428,	8570,	9098,	8204,	7529,	8454,	8080,	8782,	8404,	8329,	8445,	8560,	8548,	8469,	12.73,	15.13,	14.89,	13.41,	7.08,	14.77,	13.39,	11.99,	7.27,	10.56,	15.02,	13.88,	9.81,	12.34,	1669,	1675
122,	8409,	8574,	9077,	8121,	7489,	8406,	8059,	8780,	8391,	8295,	8426,	8530,	8540,	8438,	12.73,	15.13,	14.89,	13.41,	7.08,	14.77,	13.39,	11.99,	7.27,	10.56,	15.02,	13.88,	9.81,	12.34,	1672,	1664
123,	8411,	8616,	9057,	8108,	7421,	8361,	8055,	8751,	8378,	8227,	8414,	8501,	8532,	8451,	12.73,	15.13,	14.89,	13.41,	7.08,	14.77,	13.39,	11.99,	7.27,	10.56,	15.02,	13.88,	9.81,	12.34,	1676,	1654
124,	8408,	8611,	9051,	8166,	7412,	8375,	8056,	8747,	8381,	8270,	8414,	8502,	8498,	8446,	12.73,	15.13,	14.89,	13.41,	7.08,	14.77,	13.39,	11.99,	7.27,	10.56,	15.02,	13.88,	9.81,	12.34,	1677,	1656
125,	8377,	8565,	9028,	8131,	7414,	8373,	8033,	8744,	8356,	8307,	8402,	8489,	8491,	8434,	12.73,	15.13,	14.89,	13.41,	7.08,	14.77,	13.39,	11.99,	7.27,	10.56,	15.02,	13.88,	9.81,	12.34,	1679,	1661
126,	8357,	8558,	8999,	8058,	7412,	8339,	8005,	8711,	8299,	8224,	8384,	8463,	8514,	8444,	12.73,	15.13,	14.89,	13.41,	7.08,	14.77,	13.39,	11.99,	7.27,	10.56,	15.02,	13.88,	9.81,	12.34,	1678,	1668
127,	8358,	8567,	9019,	8097,	7432,	8337,	7992,	8696,	8286,	8213,	8399,	8477,	8522,	8424,	12.73,	15.13,	14.89,	13.41,	7.08,	14.77,	13.39,	11.99,	7.27,	10.56,	15.02,	13.88,	9.81,	12.34,	1679,	1670
0,	8337,	8524,	8985,	8086,	7367,	8286,	7968,	8667,	8307,	8263,	8368,	8439,	8481,	8423,	12.73,	15.13,	14.89,	13.41,	7.08,	14.77,	13.39,	11.99,	7.27,	10.56,	15.02,	13.88,	9.81,	12.34,	1680,	1658
1,	8305,	8541,	8950,	8023,	7376,	8254,	7945,	8653,	8294,	8193,	8336,	8409,	8478,	8392,	12.73,	15.13,	14.89,	13.41,	7.08,	14.77,	13.39,	11.99,	7.27,	10.56,	15.02,	13.88,	9.81,	12.34,	1681,	1653
2,	8293,	8510,	8910,	8013,	7373,	8254,	7965,	8647,	8245,	8143,	8286,	8366,	8456,	8401,	12.73,	15.13,	14.89,	13.41,	7.08,	14.77,	13.39,	11.99,	7.27,	10.56,	15.02,	13.88,	9.81,	12.34,	1682,	1653
3,	8290,	8498,	8908,	8010,	7350,	8257,	7965,	8661,	8236,	8146,	8283,	8365,	8459,	8385,	12.73,	15.13,	14.89,	13.41,	7.08,	14.77,	13.39,	11.99,	7.27,	10.56,	15.02,	13.88,	9.81,	12.34,	1679,	1658
4,	8301,	8496,	8925,	8011,	7403,	8290,	7969,	8676,	8280,	8200,	8315,	8386,	8462,	8401,	12.73,	15.13,	14.89,	13.41,	7.08,	14.77,	13.39,	11.99,	7.27,	10.56,	15.02,	13.88,	9.81,	12.34,	1677,	1662
5,	8323,	8503,	8943,	8037,	7440,	8344,	8000,	8695,	8307,	8249,	8337,	8406,	8469,	8420,	12.73,	15.13,	14.89,	13.41,	7.08,	14.77,	13.39,	11.99,	7.27,	10.56,	15.02,	13.88,	9.81,	12.34,	1674,	1664
6,	8331,	8534,	8960,	8054,	7362,	8296,	7995,	8700,	8260,	8239,	8346,	8435,	8493,	8398,	12.73,	15.13,	14.89,	13.41,	7.08,	14.77,	13.39,	11.99,	7.27,	10.56,	15.02,	13.88,	9.81,	12.34,	1672,	1667
7,	8313,	8479,	8942,	8023,	7348,	8226,	7954,	8657,	8217,	8198,	8319,	8413,	8469,	8402,	12.73,	15.13,	14.89,	13.41,	7.08,	14.77,	13.39,	11.99,	7.27,	10.56,	15.02,	13.88,	9.81,	12.34,	1668,	1666
8,	8291,	8436,	8931,	8009,	7412,	8263,	7933,	8651,	8265,	8220,	8313,	8393,	8449,	8381,	12.73,	15.13,	14.89,	13.41,	7.08,	14.77,	13.39,	11.99,	7.27,	10.56,	15.02,	13.88,	9.81,	12.34,	1662,	1664
9,	8323,	8529,	8950,	8042,	7433,	8290,	7966,	8691,	8283,	8272,	8339,	8420,	8485,	8390,	12.73,	15.13,	14.89,	13.41,	7.08,	14.77,	13.39,	11.99,	7.27,	10.56,	15.02,	13.88,	9.81,	12.34,	1653,	1661
10,	8358,	8572,	8960,	8031,	7434,	8253,	7985,	8695,	8287,	8269,	8341,	8431,	8500,	8411,	12.73,	15.13,	14.89,	13.41,	7.08,	14.77,	13.39,	11.99,	7.27,	10.56,	15.02,	13.88,	9.81,	12.34,	1647,	1660
11,	8342,	8504,	8960,	7994,	7460,	8288,	7980,	8691,	8334,	8256,	8333,	8422,	8489,	8381,	12.73,	15.13,	14.89,	13.41,	7.08,	14.77,	13.39,	11.99,	7.27,	10.56,	15.02,	13.88,	9.81,	12.34,	1639,	1659
12,	8335,	8487,	8937,	7987,	7437,	8337,	8006,	8696,	8307,	8254,	8327,	8412,	8482,	8396,	12.73,	15.13,	14.89,	13.41,	7.08,	14.77,	13.39,	11.99,	7.27,	10.56,	15.02,	13.88,	9.81,	12.34,	1631,	1662
13,	8353,	8557,	8938,	7998,	7419,	8292,	8019,	8715,	8273,	8277,	8342,	8425,	8494,	8399,	12.73,	15.13,	14.89,	13.41,	7.08,	14.77,	13.39,	11.99,	7.27,	10.56,	15.02,	13.88,	9.81,	12.34,	1626,	1665
14,	8348,	8543,	8956,	8019,	7472,	8253,	8015,	8737,	8296,	8299,	8345,	8434,	8490,	8379,	12.73,	15.13,	14.89,	13.41,	7.08,	14.77,	13.39,	11.99,	7.27,	10.56,	15.02,	13.88,	9.81,	12.34,	1620,	1670
15,	8334,	8473,	8953,	8028,	7481,	8278,	8030,	8736,	8308,	8301,	8326,	8424,	8455,	8390,	12.73,	15.13,	14.89,	13.41,	7.08,	14.77,	13.39,	11.99,	7.27,	10.56,	15.02,	13.88,	9.81,	12.34,	1617,	1673
16,	8346,	8537,	8971,	8015,	7467,	8320,	8042,	8751,	8336,	8313,	8352,	8449,	8474,	8376,	12.73,	15.13,	14.89,	13.41,	7.08,	14.77,	13.39,	11.99,	7.27,	10.56,	15.02,	13.88,	9.81,	12.34,	1614,	1672
17,	8367,	8594,	8978,	8012,	7476,	8304,	8048,	8756,	8328,	8315,	8370,	8459,	8518,	8387,	12.73,	15.13,	14.89,	13.41,	7.08,	14.77,	13.39,	11.99,	7.27,	10.56,	15.02,	13.88,	9.81,	12.34,	1613,	1670
18,	8375,	8551,	8977,	8027,	7475,	8274,	8048,	8754,	8287,	8353,	8380,	8455,	8528,	8391,	12.73,	15.13,	14.89,	13.41,	7.08,	14.77,	13.39,	11.99,	7.27,	10.56,	15.02,	13.88,	9.81,	12.34,	1611,	1665
19,	8374,	8528,	8989,	8016,	7485,	8302,	8045,	8765,	8304,	8398,	8407,	8474,	8536,	8382,	12.73,	15.13,	14.89,	13.41,	7.08,	14.77,	13.39,	11.99,	7.27,	10.56,	15.02,	13.88,	9.81,	12.34,	1611,	1661
20,	8357,	8526,	8949,	7996,	7484,	8326,	8033,	8735,	8312,	8340,	8375,	8446,	8513,	8390,	12.73,	15.13,	14.89,	13.41,	7.08,	14.77,	13.39,	11.99,	7.27,	10.56,	15.02,	13.88,	9.81,	12.34,	1608,	1657
21,	8334,	8545,	8923,	7987,	7451,	8286,	8005,	8706,	8265,	8301,	8345,	8414,	8498,	8354,	12.73,	15.13,	14.89,	13.41,	7.08,	14.77,	13.39,	11.99,	7.27,	10.56,	15.02,	13.88,	9.81,	12.34,	1607,	1656
22,	8337,	8543,	8943,	7971,	7433,	8241,	8000,	8706,	8228,	8356,	8352,	8416,	8505,	8358,	12.73,	15.13,	14.89,	13.41,	7.08,	14.77,	13.39,	11.99,	7.27,	10.56,	15.02,	13.88,	9.81,	12.34,	1605,	1655
23,	8348,	8516,	8952,	7974,	7452,	8281,	8025,	8726,	8292,	8374,	8360,	8426,	8516,	8374,	12.73,	15.13,	14.89,	13.41,	7.08,	14.77,	13.39,	11.99,	7.27,	10.56,	15.02,	13.88,	9.81,	12.34,	1605,	1658
24,	8346,	8540,	8958,	8000,	7447,	8308,	8033,	8755,	8352,	8335,	8371,	8448,	8535,	8350,	12.73,	15.13,	14.89,	13.41,	7.08,	14.77,	13.39,	11.99,	7.27,	10.56,	15.02,	13.88,	9.81,	12.34,	1607,	1657
25,	8344,	8551,	8951,	8012,	7449,	8268,	8034,	8753,	8278,	8336,	8359,	8445,	8531,	8371,	12.73,	15.13,	14.89,	13.41,	7.08,	14.77,	13.39,	11.99,	7.27,	10.56,	15.02,	13.88,	9.81,	12.34,	1606,	1657
26,	8348,	8518,	8958,	8024,	7489,	8301,	8052,	8770,	8252,	8409,	8371,	8456,	8516,	8365,	12.73,	15.13,	14.89,	13.41,	7.08,	14.77,	13.39,	11.99,	7.27,	10.56,	15.02,	13.88,	9.81,	12.34,	1610,	1655
27,	8361,	8530,	8968,	7999,	7452,	8328,	8064,	8783,	8300,	8418,	8386,	8475,	8501,	8359,	12.73,	15.13,	14.89,	13.41,	7.08,	14.77,	13.39,	11.99,	7.27,	10.56,	15.02,	13.88,	9.81,	12.34,	1611,	1653
28,	8380,	8600,	8967,	7974,	7361,	8230,	8044,	8749,	8295,	8348,	8374,	8463,	8507,	8374,	12.73,	15.13,	14.89,	13.41,	7.08,	14.77,	13.39,	11.99,	7.27,	10.56,	15.02,	13.88,	9.81,	12.34,	1614,	1652
29,	8389,	8625,	8988,	8003,	7371,	8213,	8027,	8753,	8288,	8374,	8401,	8479,	8549,	8348,	12.73,	15.13,	14.89,	13.41,	7.08,	14.77,	13.39,	11.99,	7.27,	10.56,	15.02,	13.88,	9.81,	12.34,	1616,	1650
30,	8399,	8584,	8984,	8006,	7411,	8313,	8057,	8774,	8284,	8429,	8408,	8484,	8549,	8361,	12.73,	15.13,	14.89,	13.41,	7.08,	14.77,	13.39,	11.99,	7.27,	10.56,	15.02,	13.88,	9.81,	12.34,	1619,	1649
31,	8403,	8598,	8977,	7999,	7404,	8319,	8066,	8758,	8260,	8407,	8385,	8466,	8525,	8357,	12.73,	15.13,	14.89,	13.41,	7.08,	14.77,	13.39,	11.99,	7.27,	10.56,	15.02,	13.88,	9.81,	12.34,	1620,	1647
32,	8383,	8629,	8975,	7997,	7417,	8272,	8051,	8741,	8257,	8365,	8380,	8461,	8524,	8338,	12.73,	15.13,	14.89,	13.41,	7.08,	14.77,	13.39,	11.99,	7.27,	10.56,	15.02,	13.88,	9.81,	12.34,	1620,	1646
33,	8360,	8592,	8940,	7955,	7437,	8269,	8060,	8744,	8292,	8351,	8362,	8440,	8506,	8345,	12.73,	15.13,	14.89,	13.41,	7.08,	14.77,	13.39,	11.99,	7.27,	10.56,	15.02,	13.88,	9.81,	12.34,	1620,	1644
34,	8352,	8582,	8940,	7954,	7429,	8271,	8063,	8770,	8324,	8393,	8363,	8430,	8501,	8317,	12.73,	15.13,	14.89,	13.41,	7.08,	14.77,	13.39,	11.99,	7.27,	10.56,	15.02,	13.88,	9.81,	12.34,	1618,	1647
35,	8379,	8606,	8968,	7988,	7470,	8255,	8074,	8797,	8289,	8425,	8400,	8458,	8530,	8343,	12.73,	15.13,	14.89,	13.41,	7.08,	14.77,	13.39,	11.99,	7.27,	10.56,	15.02,	13.88,	9.81,	12.34,	1620,	1649
36,	8404,	8611,	8980,	7979,	7463,	8237,	8078,	8810,	8283,	8404,	8432,	8484,	8552,	8356,	12.73,	15.13,	14.89,	13.41,	7.08,	14.77,	13.39,	11.99,	7.27,	10.56,	15.02,	13.88,	9.81,	12.34,	1620,	1655
37,	8418,	8663,	9014,	7999,	7285,	8217,	8066,	8821,	8329,	8420,	8447,	8495,	8560,	8332,	12.73,	15.13,	14.89,	13.41,	7.08,	14.77,	13.39,	11.99,	7.27,	10.56,	15.02,	13.88,	9.81,	12.34,	1622,	1659
38,	8451,	8712,	9036,	8039,	7292,	8229,	8083,	8816,	8299,	8457,	8464,	8501,	8566,	8372,	12.73,	15.13,	14.89,	13.41,	7.08,	14.77,	13.39,	11.99,	7.27,	10.56,	15.02,	13.88,	9.81,	12.34,	1621,	1661
39,	8458,	8685,	9041,	8025,	7545,	8303,	8097,	8817,	8291,	8452,	8499,	8528,	8589,	8364,	12.73,	15.13,	14.89,	13.41,	7.08,	14.77,	13.39,	11.99,	7.27,	10.56,	15.02,	13.88,	9.81,	12.34,	1622,	1662
40,	8459,	8646,	9063,	8044,	7597,	8331,	8107,	8828,	8380,	8439,	8496,	8540,	8589,	8350,	12.73,	15.13,	14.89,	13.41,	7.08,	14.77,	13.39,	11.99,	7.27,	10.56,	15.02,	13.88,	9.81,	12.34,	1623,	1661
41,	8474,	8678,	9073,	8072,	7484,	8284,	8116,	8824,	8397,	8458,	8477,	8520,	8567,	8361,	12.73,	15.13,	14.89,	13.41,	7.08,	14.77,	13.39,	11.99,	7.27,	10.56,	15.02,	13.88,	9.81,	12.34,	1624,	1663
42,	8473,	8753,	9067,	8018,	7508,	8283,	8107,	8828,	8313,	8499,	8518,	8533,	8600,	8340,	12.73,	15.13,	14.89,	13.41,	7.08,	14.77,	13.39,	11.99,	7.27,	10.56,	15.02,	13.88,	9.81,	12.34,	1624,	1664
43,	8477,	8736,	9062,	7994,	7520,	8320,	8121,	8837,	8264,	8505,	8543,	8546,	8629,	8367,	12.73,	15.13,	14.89,	13.41,	7.08,	14.77,	13.39,	11.99,	7.27,	10.56,	15.02,	13.88,	9.81,	12.34,	1624,	1666
44,	8469,	8670,	9073,	8049,	7477,	8298,	8112,	8837,	8322,	8492,	8525,	8533,	8602,	8360,	12.73,	15.13,	14.89,	13.41,	7.08,	14.77,	13.39,	11.99,	7.27,	10.56,	15.02,	13.88,	9.81,	12.34,	1624,	1664
45,	8451,	8673,	9073,	8071,	7502,	8253,	8077,	8822,	8387,	8477,	8504,	8516,	8570,	8336,	12.73,	15.13,	14.89,	13.41,	7.08,	14.77,	13.39,	11.99,	7.27,	10.56,	15.02,	13.88,	9.81,	12.34,	1626,	1661
46,	8477,	8741,	9064,	8041,	7377,	8235,	8104,	8837,	8320,	8505,	8505,	8518,	8575,	8366,	12.73,	15.13,	14.89,	13.41,	7.08,	14.77,	13.39,	11.99,	7.27,	10.56,	15.02,	13.88,	9.81,	12.34,	1630,	1654
47,	8496,	8776,	9077,	8015,	7222,	8200,	8133,	8889,	8248,	8573,	8557,	8555,	8623,	8359,	12.73,	15.13,	14.89,	13.41,	7.08,	14.77,	13.39,	11.99,	7.27,	10.56,	15.02,	13.88,	9.81,	12.34,	1632,	1652
48,	8449,	8677,	9040,	8007,	7336,	8186,	8097,	8853,	8293,	8511,	8553,	8529,	8623,	8353,	12.73,	15.13,	14.89,	13.41,	7.08,	14.77,	13.39,	11.99,	7.27,	10.56,	15.02,	13.88,	9.81,	12.34,	1637,	1652
49,	8430,	8623,	9026,	8032,	7485,	8239,	8083,	8803,	8364,	8431,	8511,	8496,	8579,	8347,	12.73,	15.13,	14.89,	13.41,	7.08,	14.77,	13.39,	11.99,	7.27,	10.56,	15.02,	13.88,	9.81,	12.34,	1639,	1652
50,	8471,	8732,	9086,	8066,	7436,	8259,	8118,	8839,	8359,	8471,	8530,	8543,	8578,	8337,	12.73,	15.13,	14.89,	13.41,	7.08,	14.77,	13.39,	11.99,	7.27,	10.56,	15.02,	13.88,	9.81,	12.34,	1644,	1654
51,	8481,	8773,	9084,	8068,	7348,	8207,	8117,	8843,	8271,	8499,	8534,	8548,	8593,	8359,	12.73,	15.13,	14.89,	13.41,	7.08,	14.77,	13.39,	11.99,	7.27,	10.56,	15.02,	13.88,	9.81,	12.34,	1651,	1652
52,	8464,	8740,	9073,	8063,	7396,	8212,	8093,	8820,	8262,	8488,	8543,	8533,	8616,	8338,	12.73,	15.13,	14.89,	13.41,	7.08,	14.77,	13.39,	11.99,	7.27,	10.56,	15.02,	13.88,	9.81,	12.34,	1657,	1652
53,	8488,	8759,	9117,	8063,	7459,	8272,	8126,	8848,	8337,	8497,	8579,	8567,	8613,	8349,	12.73,	15.13,	14.89,	13.41,	7.08,	14.77,	13.39,	11.99,	7.27,	10.56,	15.02,	13.88,	9.81,	12.34,	1667,	1650
54,	8506,	8774,	9128,	8092,	7469,	8289,	8154,	8889,	8384,	8523,	8584,	8584,	8590,	8367,	12.73,	15.13,	14.89,	13.41,	7.08,	14.77,	13.39,	11.99,	7.27,	10.56,	15.02,	13.88,	9.81,	12.34,	1678,	1649
55,	8480,	8764,	9102,	8117,	7432,	8270,	8132,	8894,	8372,	8529,	8569,	8571,	8609,	8334,	12.73,	15.13,	14.89,	13.41,	7.08,	14.77,	13.39,	11.99,	7.27,	10.56,	15.02,	13.88,	9.81,	12.34,	1690,	1646
56,	8486,	8778,	9103,	8061,	7413,	8245,	8134,	8875,	8315,	8528,	8555,	8560,	8616,	8366,	12.73,	15.13,	14.89,	13.41,	7.08,	14.77,	13.39,	11.99,	7.27,	10.56,	15.02,	13.88,	9.81,	12.34,	1701,	1642
57,	8496,	8821,	9128,	8010,	7446,	8279,	8138,	8893,	8361,	8531,	8563,	8569,	8595,	8367,	12.73,	15.13,	14.89,	13.41,	7.08,	14.77,	13.39,	11.99,	7.27,	10.56,	15.02,	13.88,	9.81,	12.34,	1723,	1635
58,	8448,	8785,	9085,	8042,	7343,	8287,	8121,	8900,	8406,	8521,	8565,	8548,	8582,	8332,	12.73,	15.13,	14.89,	13.41,	7.08,	14.77,	13.39,	11.99,	7.27,	10.56,	15.02,	13.88,	9.81,	12.34,	1729,	1635
59,	8398,	8709,	9011,	8076,	7236,	8184,	8107,	8845,	8317,	8520,	8540,	8500,	8550,	8334,	12.73,	15.13,	14.89,	13.41,	7.08,	14.77,	13.39,	11.99,	7.27,	10.56,	15.02,	13.88,	9.81,	12.34,	1733,	1634
60,	8396,	8733,	9024,	8041,	7370,	8164,	8089,	8819,	8232,	8554,	8541,	8496,	8525,	8314,	12.73,	15.13,	14.89,	13.41,	7.08,	14.77,	13.39,	11.99,	7.27,	10.56,	15.02,	13.88,	9.81,	12.34,	1733,	1637
61,	8408,	8753,	9037,	7999,	7439,	8236,	8090,	8811,	8268,	8518,	8546,	8489,	8525,	8332,	12.73,	15.13,	14.89,	13.41,	7.08,	14.77,	13.39,	11.99,	7.27,	10.56,	15.02,	13.88,	9.81,	12.34,	1732,	1639
62,	8398,	8719,	9005,	8024,	7330,	8219,	8096,	8794,	8317,	8456,	8534,	8465,	8542,	8336,	12.73,	15.13,	14.89,	13.41,	7.08,	14.77,	13.39,	11.99,	7.27,	10.56,	15.02,	13.88,	9.81,	12.34,	1731,	1645
63,	8392,	8699,	9007,	8057,	7327,	8171,	8093,	8805,	8178,	8529,	8533,	8470,	8554,	8323,	12.73,	15.13,	14.89,	13.41,	7.08,	14.77,	13.39,	11.99,	7.27,	10.56,	15.02,	13.88,	9.81,	12.34,	1728,	1648
64,	8392,	8724,	9010,	8026,	7404,	8204,	8087,	8791,	8110,	8548,	8531,	8463,	8539,	8349,	12.73,	15.13,	14.89,	13.41,	7.08,	14.77,	13.39,	11.99,	7.27,	10.56,	15.02,	13.88,	9.81,	12.34,	1725,	1651
65,	8396,	8791,	9018,	8010,	7348,	8249,	8083,	8790,	8353,	8459,	8566,	8476,	8556,	8331,	12.73,	15.13,	14.89,	13.41,	7.08,	14.77,	13.39,	11.99,	7.27,	10.56,	15.02,	13.88,	9.81,	12.34,	1723,	1655
66,	8411,	8794,	9010,	8017,	7226,	8213,	8095,	8815,	8491,	8431,	8568,	8476,	8570,	8334,	12.73,	15.13,	14.89,	13.41,	7.08,	14.77,	13.39,	11.99,	7.27,	10.56,	15.02,	13.88,	9.81,	12.34,	1718,	1662
67,	8397,	8713,	8964,	8008,	7294,	8148,	8089,	8816,	8337,	8475,	8524,	8434,	8544,	8344,	12.73,	15.13,	14.89,	13.41,	7.08,	14.77,	13.39,	11.99,	7.27,	10.56,	15.02,	13.88,	9.81,	12.34,	1718,	1668
68,	8401,	8710,	8971,	8037,	7504,	8207,	8094,	8832,	8263,	8547,	8564,	8449,	8564,	8323,	12.73,	15.13,	14.89,	13.41,	7.08,	14.77,	13.39,	11.99,	7.27,	10.56,	15.02,	13.88,	9.81,	12.34,	1712,	1668
69,	8455,	8788,	9006,	8047,	7469,	8284,	8127,	8854,	8310,	8560,	8618,	8484,	8613,	8358,	12.73,	15.13,	14.89,	13.41,	7.08,	14.77,	13.39,	11.99,	7.27,	10.56,	15.02,	13.88,	9.81,	12.34,	1706,	1670
70,	8462,	8785,	9006,	8018,	7388,	8246,	8116,	8864,	8296,	8542,	8620,	8478,	8625,	8358,	12.73,	15.13,	14.89,	13.41,	7.08,	14.77,	13.39,	11.99,	7.27,	10.56,	15.02,	13.88,	9.81,	12.34,	1700,	1669
71,	8445,	8710,	8998,	8025,	7485,	8259,	8104,	8865,	8348,	8532,	8608,	8469,	8601,	8344,	12.73,	15.13,	14.89,	13.41,	7.08,	14.77,	13.39,	11.99,	7.27,	10.56,	15.02,	13.88,	9.81,	12.34,	1690,	1672
72,	8482,	8734,	9014,	8044,	7354,	8345,	8145,	8862,	8392,	8573,	8627,	8488,	8613,	8376,	12.73,	15.13,	14.89,	13.41,	7.08,	14.77,	13.39,	11.99,	7.27,	10.56,	15.02,	13.88,	9.81,	12.34,	1679,	1673
73,	8506,	8840,	9038,	8046,	7245,	8352,	8155,	8867,	8337,	8637,	8666,	8515,	8667,	8371,	12.73,	15.13,	14.89,	13.41,	7.08,	14.77,	13.39,	11.99,	7.27,	10.56,	15.02,	13.88,	9.81,	12.34,	1666,	1674
74,	8507,	8839,	9041,	8072,	7534,	8335,	8148,	8870,	8335,	8601,	8656,	8512,	8675,	8391,	12.73,	15.13,	14.89,	13.41,	7.08,	14.77,	13.39,	11.99,	7.27,	10.56,	15.02,	13.88,	9.81,	12.34,	1651,	1671
75,	8529,	8797,	9066,	8117,	7670,	8385,	8171,	8896,	8411,	8598,	8666,	8534,	8671,	8405,	12.73,	15.13,	14.89,	13.41,	7.08,	14.77,	13.39,	11.99,	7.27,	10.56,	15.02,	13.88,	9.81,	12.34,	1636,	1670
76,	8537,	8808,	9082,	8098,	7481,	8403,	8177,	8912,	8422,	8655,	8714,	8564,	8701,	8382,	12.73,	15.13,	14.89,	13.41,	7.08,	14.77,	13.39,	11.99,	7.27,	10.56,	15.02,	13.88,	9.81,	12.34,	1624,	1667
77,	8520,	8788,	9046,	8053,	7390,	8335,	8153,	8890,	8339,	8644,	8705,	8545,	8683,	8398,	12.73,	15.13,	14.89,	13.41,	7.08,	14.77,	13.39,	11.99,	7.27,	10.56,	15.02,	13.88,	9.81,	12.37,	1612,	1665
78,	8530,	8825,	9060,	8083,	7421,	8304,	8156,	8916,	8370,	8624,	8700,	8557,	8660,	8394,	12.73,	15.13,	14.89,	13.41,	7.08,	14.77,	13.39,	11.99,	7.27,	10.56,	15.02,	13.88,	9.81,	12.37,	1602,	1666
79,	8573,	8883,	9103,	8116,	7479,	8378,	8193,	8963,	8459,	8671,	8735,	8577,	8704,	8397,	12.73,	15.13,	14.89,	13.41,	7.08,	14.77,	13.39,	11.99,	7.27,	10.56,	15.02,	13.88,	9.81,	12.37,	1591,	1666
80,	8576,	8818,	9098,	8085,	7526,	8454,	8186,	8957,	8469,	8726,	8756,	8571,	8754,	8408,	12.73,	15.13,	14.89,	13.41,	7.08,	14.77,	13.39,	11.99,	7.27,	10.56,	15.02,	13.88,	9.81,	12.37,	1585,	1669
81,	8553,	8779,	9069,	8060,	7250,	8382,	8149,	8926,	8406,	8723,	8753,	8566,	8762,	8390,	12.73,	15.13,	14.89,	13.41,	7.08,	14.77,	13.39,	11.99,	7.27,	10.56,	15.02,	13.88,	9.81,	12.37,	1580,	1671
82,	8546,	8824,	9025,	8059,	6947,	8302,	8144,	8887,	8323,	8688,	8709,	8529,	8720,	8395,	12.73,	15.13,	14.89,	13.41,	7.08,	14.77,	13.39,	11.99,	7.27,	10.56,	15.02,	13.88,	9.81,	12.37,	1576,	1676
83,	8524,	8817,	9013,	8061,	7028,	8376,	8138,	8873,	8339,	8695,	8682,	8506,	8692,	8375,	12.73,	15.13,	14.89,	13.41,	7.08,	14.77,	13.39,	11.99,	7.27,	10.56,	15.02,	13.88,	9.81,	12.37,	1575,	1674
84,	8525,	8756,	9029,	8068,	7101,	8416,	8150,	8890,	8345,	8739,	8703,	8524,	8708,	8379,	12.73,	15.13,	14.89,	13.41,	7.08,	14.77,	13.39,	11.99,	7.27,	10.56,	15.02,	13.88,	9.81,	12.37,	1575,	1671
85,	8559,	8759,	9038,	8068,	6953,	8336,	8169,	8908,	8320,	8730,	8732,	8536,	8730,	8398,	12.73,	15.13,	14.89,	13.41,	7.08,	14.77,	13.39,	11.99,	7.27,	10.56,	15.02,	13.88,	9.81,	12.37,	1575,	1670
86,	8560,	8812,	9051,	8072,	6885,	8301,	8144,	8898,	8335,	8711,	8744,	8540,	8733,	8377,	12.73,	15.13,	14.89,	13.41,	7.08,	14.77,	13.39,	11.99,	7.27,	10.56,	15.02,	13.88,	9.81,	12.37,	1576,	1668
87,	8535,	8783,	9030,	8071,	7051,	8365,	8127,	8844,	8355,	8705,	8712,	8513,	8700,	8392,	12.73,	15.13,	14.89,	13.41,	7.08,	14.77,	13.39,	11.99,	7.27,	10.56,	15.02,	13.88,	9.81,	12.37,	1577,	1666
88,	8540,	8763,	9036,	8055,	7155,	8446,	8148,	8843,	8442,	8680,	8706,	8511,	8697,	8386,	12.73,	15.13,	14.89,	13.41,	7.08,	14.77,	13.39,	11.99,	7.27,	10.56,	15.02,	13.88,	9.81,	12.37,	1574,	1666
89,	8587,	8839,	9095,	8088,	6998,	8399,	8178,	8906,	8399,	8718,	8753,	8564,	8746,	8394,	12.73,	15.13,	14.89,	13.41,	7.08,	14.77,	13.39,	11.99,	7.27,	10.56,	15.02,	13.88,	9.81,	12.37,	1574,	1668
90,	8615,	8862,	9111,	8137,	6908,	8298,	8197,	8926,	8269,	8779,	8777,	8585,	8789,	8433,	12.73,	15.13,	14.89,	13.41,	7.08,	14.77,	13.39,	11.99,	7.27,	10.56,	15.02,	13.88,	9.81,	12.37,	1571,	1668
91,	8589,	8820,	9107,	8111,	7038,	8350,	8192,	8921,	8378,	8752,	8767,	8573,	8769,	8405,	12.73,	15.13,	14.89,	13.41,	7.08,	14.77,	13.39,	11.99,	7.27,	10.56,	15.02,	13.88,	9.81,	12.37,	1569,	1669
92,	8553,	8806,	9093,	8070,	7116,	8463,	8184,	8911,	8535,	8669,	8719,	8542,	8675,	8401,	12.73,	15.13,	14.89,	13.41,	7.08,	14.77,	13.39,	11.99,	7.27,	10.56,	15.02,	13.88,	9.81,	12.37,	1569,	1666
93,	8554,	8838,	9094,	8113,	7043,	8430,	8179,	8911,	8445,	8698,	8709,	8534,	8675,	8403,	12.73,	15.13,	14.89,	13.41,	7.08,	14.77,	13.39,	11.99,	7.27,	10.56,	15.02,	13.88,	9.81,	12.37,	1568,	1662
94,	8585,	8844,	9131,	8159,	7068,	8375,	8200,	8941,	8340,	8781,	8759,	8574,	8782,	8400,	12.73,	15.13,	14.89,	13.41,	7.08,	14.77,	13.39,	11.99,	7.27,	10.56,	15.02,	13.88,	9.81,	12.37,	1573,	1655
95,	8605,	8834,	9132,	8135,	6981,	8379,	8221,	8934,	8438,	8736,	8740,	8566,	8763,	8423,	12.73,	15.13,	14.89,	13.41,	7.08,	14.77,	13.39,	11.99,	7.27,	10.56,	15.02,	13.88,	9.81,	12.37,	1579,	1652
96,	8590,	8910,	9128,	8132,	6832,	8327,	8190,	8919,	8466,	8727,	8717,	8552,	8702,	8398,	12.73,	15.13,	14.89,	13.41,	7.08,	14.77,	13.39,	11.99,	7.27,	10.56,	15.02,	13.88,	9.81,	12.37,	1589,	1651
97,	8581,	8927,	9142,	8135,	6968,	8319,	8177,	8931,	8331,	8803,	8751,	8582,	8740,	8415,	12.73,	15.13,	14.89,	13.41,	7.08,	14.77,	13.39,	11.99,	7.27,	10.56,	15.02,	13.88,	9.81,	12.37,	1600,	1651
98,	8591,	8818,	9148,	8115,	7101,	8430,	8201,	8935,	8384,	8764,	8756,	8587,	8756,	8437,	12.73,	15.13,	14.89,	13.41,	7.08,	14.77,	13.39,	11.99,	7.27,	10.56,	15.02,	13.88,	9.81,	12.37,	1612,	1654
99,	8566,	8807,	9141,	8124,	7070,	8495,	8206,	8937,	8594,	8681,	8732,	8565,	8709,	8394,	12.73,	15.13,	14.89,	13.41,	7.08,	14.77,	13.39,	11.99,	7.27,	10.56,	15.02,	13.88,	9.81,	12.37,	1624,	1658
100,	8551,	8893,	9125,	8137,	7085,	8458,	8218,	8933,	8528,	8704,	8726,	8554,	8709,	8408,	12.73,	15.13,	14.89,	13.41,	7.08,	14.77,	13.39,	11.99,	7.27,	10.56,	15.02,	13.88,	9.81,	12.37,	1635,	1662
101,	8567,	8896,	9150,	8148,	7089,	8436,	8225,	8928,	8341,	8765,	8760,	8578,	8767,	8414,	12.73,	15.13,	14.89,	13.41,	7.08,	14.77,	13.39,	11.99,	7.27,	10.56,	15.02,	13.88,	9.81,	12.37,	1645,	1662
102,	8566,	8836,	9165,	8167,	6991,	8415,	8212,	8920,	8415,	8742,	8770,	8591,	8757,	8408,	12.73,	15.13,	14.89,	13.41,	7.08,	14.77,	13.39,	11.99,	7.27,	10.56,	15.02,	13.88,	9.81,	12.37,	1653,	1665
103,	8560,	8829,	9139,	8172,	7010,	8391,	8208,	8915,	8516,	8720,	8757,	8576,	8703,	8419,	12.73,	15.13,	14.89,	13.41,	7.08,	14.77,	13.39,	11.99,	7.27,	10.56,	15.02,	13.88,	9.81,	12.37,	1662,	1666
104,	8546,	8852,	9131,	8167,	7103,	8437,	8211,	8931,	8508,	8740,	8763,	8574,	8700,	8396,	12.73,	15.13,	14.89,	13.41,	7.08,	14.77,	13.39,	11.99,	7.27,	10.56,	15.02,	13.88,	9.81,	12.37,	1666,	1666
105,	8529,	8876,	9104,	8150,	7009,	8429,	8205,	8923,	8492,	8680,	8712,	8542,	8680,	8418,	12.73,	15.13,	14.89,	13.41,	7.08,	14.77,	13.39,	11.99,	7.27,	10.56,	15.02,	13.88,	9.81,	12.37,	1671,	1667
106,	8529,	8902,	9092,	8126,	6928,	8375,	8190,	8918,	8422,	8669,	8688,	8536,	8686,	8434,	12.73,	15.13,	14.89,	13.41,	7.08,	14.77,	13.39,	11.99,	7.27,	10.56,	15.02,	13.88,	9.81,	12.37,	1672,	1669
107,	8534,	8858,	9134,	8138,	7036,	8379,	8181,	8924,	8380,	8720,	8739,	8587,	8738,	8435,	12.73,	15.13,	14.89,	13.41,	7.08,	14.77,	13.39,	11.99,	7.27,	10.56,	15.02,	13.88,	9.81,	12.37,	1675,	1670
108,	8523,	8802,	9131,	8164,	7199,	8409,	8176,	8892,	8472,	8680,	8732,	8581,	8701,	8453,	12.73,	15.13,	14.89,	13.41,	7.08,	14.77,	13.39,	11.99,	7.27,	10.56,	15.02,	13.88,	9.81,	12.37,	1678,	1669
109,	8523,	8884,	9117,	8144,	7178,	8431,	8176,	8899,	8508,	8678,	8729,	8574,	8679,	8429,	12.73,	15.13,	14.89,	13.41,	7.08,	14.77,	13.39,	11.99,	7.27,	10.56,	15.02,	13.88,	9.81,	12.37,	1679,	1668
110,	8536,	8910,	9130,	8121,	7094,	8395,	8189,	8920,	8391,	8717,	8749,	8597,	8728,	8446,	12.73,	15.13,	14.89,	13.41,	7.08,	14.77,	13.39,	11.99,	7.27,	10.56,	15.02,	13.88,	9.81,	12.37,	1680,	1664
111,	8534,	8812,	9137,	8172,	7161,	8362,	8190,	8897,	8396,	8687,	8729,	8596,	8704,	8458,	12.73,	15.13,	14.89,	13.41,	7.08,	14.77,	13.39,	11.99,	7.27,	10.56,	15.02,	13.88,	9.81,	12.37,	1682,	1663
112,	8533,	8835,	9150,	8222,	7198,	8404,	8179,	8894,	8501,	8675,	8731,	8602,	8661,	8423,	12.73,	15.13,	14.89,	13.41,	7.08,	14.77,	13.39,	11.99,	7.27,	10.56,	15.02,	13.88,	9.81,	12.37,	1684,	1661
113,	8559,	8914,	9167,	8193,	7203,	8456,	8197,	8907,	8495,	8690,	8762,	8619,	8701,	8454,	12.73,	15.13,	14.89,	13.41,	7.08,	14.77,	13.39,	11.99,	7.27,	10.56,	15.02,	13.88,	9.81,	12.37,	1690,	1661
114,	8595,	8907,	9210,	8186,	7242,	8459,	8210,	8923,	8495,	8682,	8794,	8654,	8770,	8464,	12.73,	15.13,	14.89,	13.41,	7.08,	14.77,	13.39,	11.99,	7.27,	10.56,	15.02,	13.88,	9.81,	12.37,	1691,	1661
115,	8628,	8885,	9242,	8247,	7202,	8427,	8220,	8942,	8480,	8675,	8805,	8688,	8777,	8460,	12.73,	15.13,	14.89,	13.41,	7.08,	14.77,	13.39,	11.99,	7.27,	10.56,	15.02,	13.88,	9.81,	12.37,	1693,	1663
116,	8645,	8934,	9240,	8272,	7212,	8434,	8236,	8932,	8416,	8702,	8808,	8693,	8742,	8484,	12.73,	15.13,	14.89,	13.41,	7.08,	14.77,	13.39,	11.99,	7.27,	10.56,	15.02,	13.88,	9.81,	12.37,	1694,	1668
117,	8633,	8965,	9257,	8245,	7320,	8487,	8224,	8921,	8477,	8730,	8830,	8703,	8743,	8460,	12.73,	15.13,	14.89,	13.41,	7.08,	14.77,	13.39,	11.99,	7.27,	10.56,	15.02,	13.88,	9.81,	12.37,	1696,	1669
118,	8622,	8889,	9255,	8245,	7307,	8494,	8226,	8925,	8537,	8694,	8840,	8705,	8773,	8467,	12.73,	15.13,	14.89,	13.41,	7.08,	14.77,	13.39,	11.99,	7.27,	10.56,	15.02,	13.88,	9.81,	12.37,	1697,	1666
119,	8618,	8868,	9246,	8278,	7266,	8472,	8234,	8943,	8518,	8674,	8842,	8708,	8798,	8471,	12.73,	15.13,	14.89,	13.41,	7.08,	14.77,	13.39,	11.99,	7.27,	10.56,	15.02,	13.88,	9.81,	12.37,	1698,	1659
120,	8618,	8936,	9261,	8288,	7338,	8486,	8238,	8963,	8535,	8720,	8848,	8710,	8781,	8455,	12.73,	15.13,	14.89,	13.41,	7.08,	14.77,	13.39,	11.99,	7.27,	10.56,	15.02,	13.88,	9.81,	12.37,	1699,	1650
121,	8624,	8945,	9260,	8273,	7322,	8471,	8245,	8958,	8527,	8711,	8830,	8688,	8737,	8479,	12.73,	15.13,	14.89,	13.41,	7.08,	14.77,	13.39,	11.99,	7.27,	10.56,	15.02,	13.88,	9.81,	12.37,	1698,	1647
122,	8613,	8933,	9253,	8267,	7295,	8458,	8232,	8951,	8508,	8646,	8812,	8685,	8738,	8456,	12.73,	15.13,	14.89,	13.41,	7.08,	14.77,	13.39,	11.99,	7.27,	10.56,	15.02,	13.88,	9.81,	12.37,	1699,	1647
123,	8613,	8918,	9240,	8269,	7359,	8512,	8239,	8941,	8493,	8642,	8798,	8685,	8752,	8454,	12.73,	15.13,	14.89,	13.41,	7.08,	14.77,	13.39,	11.99,	7.27,	10.56,	15.02,	13.88,	9.81,	12.37,	1696,	1653
124,	8625,	8903,	9239,	8279,	7331,	8524,	8256,	8936,	8478,	8684,	8795,	8685,	8737,	8480,	12.73,	15.13,	14.89,	13.41,	7.08,	14.77,	13.39,	11.99,	7.27,	10.56,	15.02,	13.88,	9.81,	12.37,	1696,	1659
125,	8631,	8922,	9258,	8287,	7275,	8472,	8247,	8954,	8484,	8671,	8814,	8707,	8748,	8466,	12.73,	15.13,	14.89,	13.41,	7.08,	14.77,	13.39,	11.99,	7.27,	10.56,	15.02,	13.88,	9.81,	12.37,	1693,	1662
126,	8620,	8897,	9236,	8255,	7296,	8452,	8231,	8954,	8457,	8620,	8800,	8698,	8751,	8474,	12.73,	15.13,	14.89,	13.41,	7.08,	14.77,	13.39,	11.99,	7.27,	10.56,	15.02,	13.88,	9.81,	12.37,	1692,	1664
127,	8591,	8854,	9219,	8244,	7336,	8501,	8223,	8958,	8479,	8615,	8783,	8682,	8733,	8456,	12.73,	15.13,	14.89,	13.41,	7.08,	14.77,	13.39,	11.99,	7.27,	10.56,	15.02,	13.88,	9.81,	12.37,	1689,	1661
0,	8585,	8880,	9206,	8243,	7380,	8500,	8234,	8955,	8504,	8554,	8759,	8661,	8728,	8449,	12.73,	15.13,	14.89,	13.41,	7.08,	14.77,	13.39,	11.99,	7.27,	10.56,	15.02,	13.88,	9.81,	12.37,	1683,	1655
1,	8584,	8875,	9196,	8198,	7370,	8481,	8211,	8940,	8466,	8553,	8769,	8668,	8726,	8431,	12.73,	15.13,	14.89,	13.41,	7.08,	14.77,	13.39,	11.99,	7.27,	10.56,	15.02,	13.88,	9.81,	12.37,	1679,	1658
2,	8586,	8842,	9198,	8214,	7321,	8472,	8199,	8911,	8492,	8534,	8756,	8657,	8705,	8451,	12.73,	15.13,	14.89,	13.41,	7.08,	14.77,	13.39,	11.99,	7.27,	10.56,	15.02,	13.88,	9.81,	12.37,	1674,	1663
3,	8584,	8829,	9202,	8248,	7414,	8490,	8201,	8910,	8489,	8534,	8750,	8654,	8713,	8454,	12.73,	15.13,	14.89,	13.41,	7.08,	14.77,	13.39,	11.99,	7.27,	10.56,	15.02,	13.88,	9.81,	12.37,	1667,	1672
4,	8568,	8845,	9195,	8235,	7543,	8524,	8211,	8925,	8437,	8538,	8746,	8657,	8728,	8438,	12.73,	15.13,	14.89,	13.41,	7.08,	14.77,	13.39,	11.99,	7.27,	10.56,	15.02,	13.88,	9.81,	12.37,	1662,	1678
5,	8551,	8846,	9163,	8201,	7481,	8485,	8206,	8893,	8429,	8453,	8700,	8618,	8704,	8447,	12.73,	15.13,	14.89,	13.41,	7.08,	14.77,	13.39,	11.99,	7.27,	10.56,	15.02,	13.88,	9.81,	12.37,	1652,	1684
6,	8533,	8816,	9162,	8204,	7495,	8475,	8189,	8885,	8479,	8417,	8694,	8608,	8692,	8426,	12.73,	15.13,	14.89,	13.41,	7.08,	14.77,	13.39,	11.99,	7.27,	10.56,	15.02,	13.88,	9.81,	12.37,	1644,	1684
7,	8520,	8752,	9161,	8209,	7722,	8526,	8206,	8908,	8472,	8473,	8693,	8616,	8675,	8434,	12.73,	15.13,	14.89,	13.41,	7.08,	14.77,	13.39,	11.99,	7.27,	10.56,	15.02,	13.88,	9.81,	12.37,	1634,	1683
8,	8525,	8748,	9154,	8211,	7843,	8509,	8222,	8915,	8432,	8489,	8684,	8612,	8673,	8445,	12.73,	15.13,	14.89,	13.41,	7.08,	14.77,	13.39,	11.99,	7.27,	10.56,	15.02,	13.88,	9.81,	12.37,	1627,	1682
9,	8537,	8829,	9166,	8222,	7789,	8493,	8211,	8907,	8429,	8449,	8699,	8619,	8702,	8427,	12.73,	15.13,	14.89,	13.41,	7.08,	14.77,	13.39,	11.99,	7.27,	10.56,	15.02,	13.88,	9.81,	12.37,	1619,	1679
10,	8547,	8843,	9159,	8203,	7762,	8520,	8205,	8888,	8433,	8430,	8697,	8618,	8692,	8444,	12.73,	15.13,	14.89,	13.41,	7.08,	14.77,	13.39,	11.99,	7.27,	10.56,	15.02,	13.88,	9.81,	12.37,	1613,	1679
11,	8565,	8792,	9181,	8190,	7807,	8505,	8208,	8907,	8473,	8455,	8715,	8644,	8691,	8439,	12.73,	15.13,	14.89,	13.41,	7.08,	14.77,	13.39,	11.99,	7.27,	10.56,	15.02,	13.88,	9.81,	12.37,	1608,	1677
12,	8583,	8765,	9202,	8213,	7836,	8505,	8225,	8926,	8475,	8452,	8733,	8668,	8716,	8447,	12.73,	15.13,	14.89,	13.41,	7.08,	14.77,	13.39,	11.99,	7.27,	10.56,	15.02,	13.88,	9.81,	12.37,	1606,	1677
13,	8568,	8760,	9182,	8213,	7830,	8543,	8221,	8910,	8428,	8452,	8726,	8662,	8718,	8464,	12.73,	15.13,	14.89,	13.41,	7.08,	14.77,	13.39,	11.99,	7.27,	10.56,	15.02,	13.88,	9.81,	12.37,	1605,	1677
14,	8555,	8793,	9192,	8205,	7819,	8504,	8194,	8918,	8438,	8504,	8746,	8689,	8708,	8451,	12.73,	15.13,	14.89,	13.41,	7.08,	14.77,	13.39,	11.99,	7.27,	10.56,	15.02,	13.88,	9.81,	12.37,	1604,	1679
15,	8585,	8835,	9222,	8229,	7826,	8468,	8211,	8934,	8480,	8491,	8759,	8716,	8707,	8481,	12.73,	15.13,	14.89,	13.41,	7.08,	14.77,	13.39,	11.99,	7.27,	10.56,	15.02,	13.88,	9.81,	12.37,	1605,	1678
16,	8598,	8831,	9242,	8245,	7842,	8538,	8240,	8943,	8499,	8455,	8777,	8730,	8749,	8487,	12.73,	15.13,	14.89,	13.41,	7.08,	14.77,	13.39,	11.99,	7.27,	10.56,	15.02,	13.88,	9.81,	12.37,	1605,	1679
17,	8590,	8789,	9243,	8222,	7830,	8571,	8249,	8954,	8493,	8475,	8795,	8731,	8786,	8483,	12.73,	15.13,	14.89,	13.41,	7.08,	14.77,	13.39,	11.99,	7.27,	10.56,	15.02,	13.88,	9.81,	12.37,	1607,	1681
18,	8599,	8781,	9234,	8212,	7807,	8533,	8258,	8953,	8496,	8462,	8765,	8701,	8746,	8500,	12.73,	15.13,	14.89,	13.41,	7.08,	14.77,	13.39,	11.99,	7.27,	10.56,	15.02,	13.88,	9.81,	12.37,	1607,	1683
19,	8581,	8799,	9223,	8211,	7771,	8519,	8245,	8938,	8460,	8449,	8740,	8676,	8702,	8472,	12.73,	15.13,	14.89,	13.41,	7.08,	14.77,	13.39,	11.99,	7.27,	10.56,	15.02,	13.88,	9.81,	12.37,	1609,	1686
20,	8554,	8775,	9197,	8186,	7742,	8518,	8241,	8905,	8382,	8457,	8730,	8654,	8697,	8478,	12.73,	15.13,	14.89,	13.41,	7.08,	14.77,	13.39,	11.99,	7.27,	10.56,	15.02,	13.88,	9.81,	12.37,	1612,	1687
21,	8558,	8804,	9198,	8188,	7765,	8534,	8274,	8908,	8410,	8436,	8712,	8641,	8709,	8477,	12.73,	15.13,	14.89,	13.41,	7.08,	14.77,	13.39,	11.99,	7.27,	10.56,	15.02,	13.88,	9.81,	12.37,	1614,	1688
22,	8548,	8812,	9194,	8188,	7731,	8526,	8295,	8913,	8461,	8376,	8696,	8629,	8696,	8455,	12.73,	15.13,	14.89,	13.41,	7.08,	14.77,	13.39,	11.99,	7.27,	10.56,	15.02,	13.88,	9.81,	12.37,	1620,	1684
23,	8502,	8680,	9134,	8127,	7651,	8452,	8287,	8849,	8390,	8332,	8655,	8573,	8635,	8460,	12.73,	15.13,	14.89,	13.41,	7.08,	14.77,	13.39,	11.99,	7.27,	10.56,	15.02,	13.88,	9.81,	12.37,	1622,	1683
24,	8454,	8640,	9087,	8095,	7668,	8428,	8280,	8816,	8349,	8363,	8613,	8528,	8604,	8429,	12.73,	15.13,	14.89,	13.41,	7.08,	14.77,	13.39,	11.99,	7.27,	10.56,	15.02,	13.88,	9.81,	12.37,	1627,	1678
25,	8427,	8701,	9046,	8116,	7666,	8461,	8309,	8842,	8390,	8365,	8588,	8508,	8595,	8427,	12.73,	15.13,	14.89,	13.41,	7.08,	14.77,	13.39,	11.99,	7.27,	10.56,	15.02,	13.88,	9.81,	12.37,	1631,	1674
26,	8401,	8673,	9009,	8125,	7555,	8437,	8326,	8844,	8387,	8314,	8577,	8487,	8570,	8429,	12.73,	15.13,	14.89,	13.41,	7.08,	14.77,	13.39,	11.99,	7.27,	10.56,	15.02,	13.88,	9.81,	12.37,	1636,	1668
27,	8390,	8632,	9036,	8120,	7552,	8428,	8322,	8842,	8363,	8319,	8589,	8490,	8582,	8412,	12.73,	15.13,	14.89,	13.41,	7.08,	14.77,	13.39,	11.99,	7.27,	10.56,	15.02,	13.88,	9.81,	12.37,	1639,	1666
28,	8413,	8649,	9051,	8123,	7636,	8487,	8352,	8851,	8353,	8332,	8581,	8487,	8587,	8438,	12.73,	15.13,	14.89,	13.41,	7.08,	14.77,	13.39,	11.99,	7.27,	10.56,	15.02,	13.88,	9.81,	12.37,	1646,	1667
29,	8422,	8700,	9044,	8136,	7636,	8506,	8366,	8858,	8375,	8306,	8578,	8480,	8564,	8424,	12.73,	15.13,	14.89,	13.41,	7.08,	14.77,	13.39,	11.99,	7.27,	10.56,	15.02,	13.88,	9.81,	12.37,	1649,	1670
30,	8400,	8711,	9035,	8136,	7611,	8476,	8347,	8825,	8381,	8300,	8572,	8469,	8545,	8410,	12.73,	15.13,	14.89,	13.41,	7.08,	14.77,	13.39,	11.99,	7.27,	10.56,	15.02,	13.88,	9.81,	12.37,	1653,	1673
31,	8388,	8652,	9016,	8127,	7559,	8447,	8336,	8784,	8353,	8319,	8544,	8448,	8532,	8419,	12.73,	15.13,	14.89,	13.41,	7.08,	14.77,	13.39,	11.99,	7.27,	10.56,	15.02,	13.88,	9.81,	12.37,	1656,	1669
32,	8381,	8612,	9023,	8131,	7515,	8450,	8332,	8793,	8339,	8318,	8544,	8458,	8540,	8400,	12.73,	15.13,	14.89,	13.41,	7.08,	14.77,	13.39,	11.99,	7.27,	10.56,	15.02,	13.88,	9.81,	12.37,	1656,	1665
33,	8369,	8608,	9010,	8126,	7557,	8489,	8328,	8788,	8338,	8266,	8534,	8447,	8543,	8419,	12.73,	15.13,	14.89,	13.41,	7.08,	14.77,	13.39,	11.99,	7.27,	10.56,	15.02,	13.88,	9.81,	12.37,	1656,	1659
34,	8373,	8639,	9006,	8130,	7583,	8482,	8311,	8781,	8372,	8263,	8536,	8441,	8552,	8419,	12.73,	15.13,	14.89,	13.41,	7.08,	14.77,	13.39,	11.99,	7.27,	10.56,	15.02,	13.88,	9.81,	12.37,	1655,	1653
35,	8407,	8700,	9051,	8169,	7533,	8423,	8312,	8813,	8397,	8329,	8578,	8484,	8579,	8415,	12.73,	15.13,	14.89,	13.41,	7.08,	14.77,	13.39,	11.99,	7.27,	10.56,	15.02,	13.88,	9.81,	12.37,	1653,	1644
36,	8420,	8696,	9061,	8195,	7559,	8454,	8345,	8820,	8416,	8311,	8583,	8497,	8578,	8445,	12.73,	15.13,	14.89,	13.41,	7.08,	14.77,	13.39,	11.99,	7.27,	10.56,	15.02,	13.88,	9.81,	12.37,	1653,	1633
